Sample Index, EXG Channel 0, EXG Channel 1, EXG Channel 2, EXG Channel 3, Accel Channel 0, Accel Channel 1, Accel Channel 2, Other, Other, Other, Other, Other, Timestamp, Timestamp (Formatted)
0.0, -161.4402618408203, -53.27861404418945, 125.69055938720703, 39.33252716064453, 0.0, 0.0, 0.0, 0.0, 0.0, 0.0, 0.0, 0.0, 1.6218604300092397E9, 2021-05-24 14:47:10.009
1.0, -235.6136932373047, -102.18528747558594, 54.56513977050781, -17.173620223999023, 0.0, 0.0, 0.0, 0.0, 0.0, 0.0, 0.0, 0.0, 1.6218604300224695E9, 2021-05-24 14:47:10.022
1.0, -188.83502197265625, -89.80247497558594, 94.5521469116211, 6.462547302246094, 0.0, 0.0, 0.0, 0.0, 0.0, 0.0, 0.0, 0.0, 1.6218604300224695E9, 2021-05-24 14:47:10.022
2.0, -106.38893127441406, -15.939454078674316, 185.23724365234375, 84.96678924560547, -0.08000000566244125, 0.0, 0.0, 0.0, 0.0, 0.0, 0.0, 0.0, 1.621860430054288E9, 2021-05-24 14:47:10.054
2.0, -161.38790893554688, -44.179439544677734, 137.6881561279297, 48.61869812011719, -0.08000000566244125, 0.0, 0.0, 0.0, 0.0, 0.0, 0.0, 0.0, 1.621860430054288E9, 2021-05-24 14:47:10.054
3.0, -236.1709442138672, -102.0581283569336, 60.48914337158203, -20.726526260375977, -0.08000000566244125, 0.0, 0.0, 0.0, 0.0, 0.0, 0.0, 0.0, 1.6218604300550044E9, 2021-05-24 14:47:10.055
3.0, -193.0162353515625, -78.63139343261719, 98.6660385131836, 8.104363441467285, -0.08000000566244125, 0.0, 0.0, 0.0, 0.0, 0.0, 0.0, 0.0, 1.6218604300550044E9, 2021-05-24 14:47:10.055
4.0, -106.6357650756836, -6.31295108795166, 178.28477478027344, 80.17597198486328, -0.08000000566244125, 0.0, 0.0, 0.0, 0.0, 0.0, 0.0, 0.0, 1.6218604300557628E9, 2021-05-24 14:47:10.055
4.0, -161.45147705078125, -39.52326202392578, 132.91604614257812, 44.684326171875, -0.08000000566244125, 0.0, 0.0, 0.0, 0.0, 0.0, 0.0, 0.0, 1.6218604300557628E9, 2021-05-24 14:47:10.055
5.0, -239.091796875, -95.96208953857422, 52.063148498535156, -22.443140029907227, -0.08000000566244125, 0.0, 0.0, 0.0, 0.0, 0.0, 0.0, 0.0, 1.6218604300565937E9, 2021-05-24 14:47:10.056
5.0, -195.0956268310547, -85.58760833740234, 91.38445281982422, -1.54831862449646, -0.08000000566244125, 0.0, 0.0, 0.0, 0.0, 0.0, 0.0, 0.0, 1.6218604300565937E9, 2021-05-24 14:47:10.056
6.0, -106.22811889648438, -7.3526434898376465, 180.9475860595703, 79.78328704833984, -0.08000000566244125, 0.0, 0.0, 0.0, 0.0, 0.0, 0.0, 0.0, 1.6218604300673063E9, 2021-05-24 14:47:10.067
6.0, -161.82920837402344, -50.69434356689453, 124.65460205078125, 42.96023178100586, -0.08000000566244125, 0.0, 0.0, 0.0, 0.0, 0.0, 0.0, 0.0, 1.6218604300673063E9, 2021-05-24 14:47:10.067
7.0, -234.98165893554688, -90.81224822998047, 53.39455032348633, -17.858022689819336, -0.08000000566244125, 0.0, 0.0, 0.0, 0.0, 0.0, 0.0, 0.0, 1.6218604300822728E9, 2021-05-24 14:47:10.082
7.0, -185.4840850830078, -81.70559692382812, 91.54153442382812, 4.738453388214111, -0.08000000566244125, 0.0, 0.0, 0.0, 0.0, 0.0, 0.0, 0.0, 1.6218604300822728E9, 2021-05-24 14:47:10.082
8.0, -105.86534881591797, -11.41043472290039, 179.21974182128906, 81.0997314453125, -0.08000000566244125, 0.0, 0.0, 0.0, 0.0, 0.0, 0.0, 0.0, 1.6218604301144807E9, 2021-05-24 14:47:10.114
8.0, -153.56028747558594, -45.49214172363281, 126.45723724365234, 42.41420364379883, -0.08000000566244125, 0.0, 0.0, 0.0, 0.0, 0.0, 0.0, 0.0, 1.6218604301144807E9, 2021-05-24 14:47:10.114
9.0, -233.14161682128906, -102.0618667602539, 51.30768585205078, -20.558229446411133, -0.08000000566244125, 0.0, 0.0, 0.0, 0.0, 0.0, 0.0, 0.0, 1.6218604301152084E9, 2021-05-24 14:47:10.115
9.0, -190.9705047607422, -79.60376739501953, 89.92963409423828, 0.45252788066864014, -0.08000000566244125, 0.0, 0.0, 0.0, 0.0, 0.0, 0.0, 0.0, 1.6218604301152084E9, 2021-05-24 14:47:10.115
10.0, -106.10844421386719, -18.28437042236328, 179.00657653808594, 72.09779357910156, -0.08000000566244125, 0.0, 1.055999994277954, 0.0, 0.0, 0.0, 0.0, 0.0, 1.6218604301159143E9, 2021-05-24 14:47:10.115
10.0, -156.98977661132812, -45.406124114990234, 129.82315063476562, 40.877105712890625, -0.08000000566244125, 0.0, 1.055999994277954, 0.0, 0.0, 0.0, 0.0, 0.0, 1.6218604301159143E9, 2021-05-24 14:47:10.115
11.0, -234.63758850097656, -101.65422058105469, 53.45439147949219, -22.084108352661133, -0.08000000566244125, 0.0, 1.055999994277954, 0.0, 0.0, 0.0, 0.0, 0.0, 1.621860430116518E9, 2021-05-24 14:47:10.116
11.0, -184.56405639648438, -85.44175720214844, 89.28263092041016, 2.4346749782562256, -0.08000000566244125, 0.0, 1.055999994277954, 0.0, 0.0, 0.0, 0.0, 0.0, 1.621860430116518E9, 2021-05-24 14:47:10.116
12.0, -100.60330963134766, -10.65123462677002, 179.45535278320312, 74.19587707519531, -0.06400000303983688, 0.0, 1.055999994277954, 0.0, 0.0, 0.0, 0.0, 0.0, 1.621860430127439E9, 2021-05-24 14:47:10.127
12.0, -153.7622528076172, -43.132266998291016, 129.299560546875, 39.80375671386719, -0.06400000303983688, 0.0, 1.055999994277954, 0.0, 0.0, 0.0, 0.0, 0.0, 1.621860430127439E9, 2021-05-24 14:47:10.127
13.0, -228.6313018798828, -104.31703186035156, 53.12527847290039, -16.818330764770508, -0.06400000303983688, 0.0, 1.055999994277954, 0.0, 0.0, 0.0, 0.0, 0.0, 1.621860430142243E9, 2021-05-24 14:47:10.142
13.0, -194.5795135498047, -83.94579315185547, 92.2633285522461, 4.113890171051025, -0.06400000303983688, 0.0, 1.055999994277954, 0.0, 0.0, 0.0, 0.0, 0.0, 1.621860430142243E9, 2021-05-24 14:47:10.142
14.0, -109.19011688232422, -14.439753532409668, 169.52218627929688, 79.92913818359375, -0.06400000303983688, 0.0, 1.055999994277954, 0.0, 0.0, 0.0, 0.0, 0.0, 1.6218604301579404E9, 2021-05-24 14:47:10.157
14.0, -154.46534729003906, -43.80918884277344, 128.1514129638672, 49.089927673339844, -0.06400000303983688, 0.0, 1.055999994277954, 0.0, 0.0, 0.0, 0.0, 0.0, 1.6218604301579404E9, 2021-05-24 14:47:10.157
15.0, -234.7871856689453, -96.9793472290039, 43.43145751953125, -17.79070472717285, -0.06400000303983688, 0.0, 1.055999994277954, 0.0, 0.0, 0.0, 0.0, 0.0, 1.621860430158582E9, 2021-05-24 14:47:10.158
15.0, -184.94552612304688, -87.42764282226562, 90.3372802734375, 3.7959985733032227, -0.06400000303983688, 0.0, 1.055999994277954, 0.0, 0.0, 0.0, 0.0, 0.0, 1.621860430158582E9, 2021-05-24 14:47:10.158
16.0, -109.41077423095703, -19.301624298095703, 176.29515075683594, 81.59339904785156, -0.06400000303983688, 0.0, 1.055999994277954, 0.0, 0.0, 0.0, 0.0, 0.0, 1.621860430172244E9, 2021-05-24 14:47:10.172
16.0, -158.971923828125, -47.17136001586914, 123.52141571044922, 48.622440338134766, -0.06400000303983688, 0.0, 1.055999994277954, 0.0, 0.0, 0.0, 0.0, 0.0, 1.621860430172244E9, 2021-05-24 14:47:10.172
17.0, -230.5386505126953, -101.96089172363281, 50.0660400390625, -14.447233200073242, -0.06400000303983688, 0.0, 1.055999994277954, 0.0, 0.0, 0.0, 0.0, 0.0, 1.6218604301879046E9, 2021-05-24 14:47:10.187
17.0, -196.37466430664062, -88.08212280273438, 93.03001403808594, 8.957060813903809, -0.06400000303983688, 0.0, 1.055999994277954, 0.0, 0.0, 0.0, 0.0, 0.0, 1.6218604301879046E9, 2021-05-24 14:47:10.187
18.0, -111.65471649169922, -14.697806358337402, 176.2689666748047, 79.66361236572266, -0.06400000303983688, 0.0, 1.055999994277954, 0.0, 0.0, 0.0, 0.0, 0.0, 1.6218604301886537E9, 2021-05-24 14:47:10.188
18.0, -156.36148071289062, -47.01802062988281, 126.99578094482422, 45.9409294128418, -0.06400000303983688, 0.0, 1.055999994277954, 0.0, 0.0, 0.0, 0.0, 0.0, 1.6218604301886537E9, 2021-05-24 14:47:10.188
19.0, -237.8688507080078, -102.11796569824219, 46.789886474609375, -13.605755805969238, -0.06400000303983688, 0.0, 1.055999994277954, 0.0, 0.0, 0.0, 0.0, 0.0, 1.621860430202212E9, 2021-05-24 14:47:10.202
19.0, -188.63681030273438, -86.66844177246094, 91.59388732910156, 4.7160139083862305, -0.06400000303983688, 0.0, 1.055999994277954, 0.0, 0.0, 0.0, 0.0, 0.0, 1.621860430202212E9, 2021-05-24 14:47:10.202
20.0, -114.33995819091797, -21.201492309570312, 166.9902801513672, 75.81151580810547, -0.06400000303983688, 0.0, 1.055999994277954, 0.0, 0.0, 0.0, 0.0, 0.0, 1.621860430234232E9, 2021-05-24 14:47:10.234
20.0, -160.49032592773438, -46.41215896606445, 121.12413787841797, 42.20851135253906, -0.06400000303983688, 0.0, 1.055999994277954, 0.0, 0.0, 0.0, 0.0, 0.0, 1.621860430234232E9, 2021-05-24 14:47:10.234
21.0, -242.98878479003906, -102.85099029541016, 40.114166259765625, -16.253604888916016, -0.06400000303983688, 0.0, 1.055999994277954, 0.0, 0.0, 0.0, 0.0, 0.0, 1.6218604302350032E9, 2021-05-24 14:47:10.235
21.0, -197.3507843017578, -88.46733093261719, 84.01311492919922, 6.088557243347168, -0.06400000303983688, 0.0, 1.055999994277954, 0.0, 0.0, 0.0, 0.0, 0.0, 1.6218604302350032E9, 2021-05-24 14:47:10.235
22.0, -105.39785766601562, -13.605755805969238, 175.6070098876953, 78.17887115478516, -0.08000000566244125, 0.0, 1.055999994277954, 0.0, 0.0, 0.0, 0.0, 0.0, 1.6218604302357426E9, 2021-05-24 14:47:10.235
22.0, -158.65029907226562, -43.23698425292969, 122.43310546875, 49.10114669799805, -0.08000000566244125, 0.0, 1.055999994277954, 0.0, 0.0, 0.0, 0.0, 0.0, 1.6218604302357426E9, 2021-05-24 14:47:10.235
23.0, -237.9586181640625, -100.29663848876953, 45.8810920715332, -10.598875999450684, -0.08000000566244125, 0.0, 1.055999994277954, 0.0, 0.0, 0.0, 0.0, 0.0, 1.6218604302364554E9, 2021-05-24 14:47:10.236
23.0, -189.160400390625, -87.08731079101562, 80.20215606689453, 7.034751892089844, -0.08000000566244125, 0.0, 1.055999994277954, 0.0, 0.0, 0.0, 0.0, 0.0, 1.6218604302364554E9, 2021-05-24 14:47:10.236
24.0, -107.30520629882812, -15.157814979553223, 173.20599365234375, 87.77171325683594, -0.08000000566244125, 0.0, 1.055999994277954, 0.0, 0.0, 0.0, 0.0, 0.0, 1.621860430247224E9, 2021-05-24 14:47:10.247
24.0, -158.41842651367188, -44.998477935791016, 118.51368713378906, 51.50216293334961, -0.08000000566244125, 0.0, 1.055999994277954, 0.0, 0.0, 0.0, 0.0, 0.0, 1.621860430247224E9, 2021-05-24 14:47:10.247
25.0, -236.309326171875, -101.91227722167969, 46.42711639404297, -11.156121253967285, -0.08000000566244125, 0.0, 1.055999994277954, 0.0, 0.0, 0.0, 0.0, 0.0, 1.6218604302622793E9, 2021-05-24 14:47:10.262
25.0, -190.1776580810547, -87.6482925415039, 94.451171875, 8.332496643066406, -0.08000000566244125, 0.0, 1.055999994277954, 0.0, 0.0, 0.0, 0.0, 0.0, 1.6218604302622793E9, 2021-05-24 14:47:10.262
26.0, -104.64240264892578, -16.855728149414062, 171.72125244140625, 83.96449279785156, -0.08000000566244125, 0.0, 1.055999994277954, 0.0, 0.0, 0.0, 0.0, 0.0, 1.6218604302927408E9, 2021-05-24 14:47:10.292
26.0, -154.4466552734375, -43.00136947631836, 127.19400024414062, 48.607479095458984, -0.08000000566244125, 0.0, 1.055999994277954, 0.0, 0.0, 0.0, 0.0, 0.0, 1.6218604302927408E9, 2021-05-24 14:47:10.292
27.0, -234.12147521972656, -98.49774169921875, 43.457637786865234, -11.608649253845215, -0.08000000566244125, 0.0, 1.055999994277954, 0.0, 0.0, 0.0, 0.0, 0.0, 1.6218604303100097E9, 2021-05-24 14:47:10.310
27.0, -191.85687255859375, -81.75421142578125, 88.4112319946289, 7.584517002105713, -0.08000000566244125, 0.0, 1.055999994277954, 0.0, 0.0, 0.0, 0.0, 0.0, 1.6218604303100097E9, 2021-05-24 14:47:10.310
28.0, -107.7203369140625, -25.08350944519043, 174.066162109375, 78.97920989990234, -0.08000000566244125, 0.0, 1.055999994277954, 0.0, 0.0, 0.0, 0.0, 0.0, 1.6218604303107889E9, 2021-05-24 14:47:10.310
28.0, -162.18075561523438, -45.70905685424805, 121.0119400024414, 43.218284606933594, -0.08000000566244125, 0.0, 1.055999994277954, 0.0, 0.0, 0.0, 0.0, 0.0, 1.6218604303107889E9, 2021-05-24 14:47:10.310
29.0, -238.14935302734375, -99.967529296875, 46.77119064331055, -12.75679874420166, -0.08000000566244125, 0.0, 1.055999994277954, 0.0, 0.0, 0.0, 0.0, 0.0, 1.621860430311504E9, 2021-05-24 14:47:10.311
29.0, -197.14134216308594, -81.29794311523438, 86.49640655517578, 11.27953815460205, -0.08000000566244125, 0.0, 1.055999994277954, 0.0, 0.0, 0.0, 0.0, 0.0, 1.621860430311504E9, 2021-05-24 14:47:10.311
30.0, -104.96028900146484, -15.636521339416504, 172.59263610839844, 85.78956604003906, -0.08000000566244125, 0.0, 1.055999994277954, 0.0, 0.0, 0.0, 0.0, 0.0, 1.621860430312208E9, 2021-05-24 14:47:10.312
30.0, -158.91583251953125, -51.20296859741211, 115.61526489257812, 49.24700164794922, -0.08000000566244125, 0.0, 1.055999994277954, 0.0, 0.0, 0.0, 0.0, 0.0, 1.621860430312208E9, 2021-05-24 14:47:10.312
31.0, -236.70574951171875, -105.73445129394531, 38.00112533569336, -9.877076148986816, -0.08000000566244125, 0.0, 1.055999994277954, 0.0, 0.0, 0.0, 0.0, 0.0, 1.6218604303221793E9, 2021-05-24 14:47:10.322
31.0, -194.9198455810547, -84.34596252441406, 82.62934875488281, 10.449280738830566, -0.08000000566244125, 0.0, 1.055999994277954, 0.0, 0.0, 0.0, 0.0, 0.0, 1.6218604303221793E9, 2021-05-24 14:47:10.322
32.0, -110.85811614990234, -20.741485595703125, 174.42144775390625, 84.6563720703125, -0.08000000566244125, 0.0, 1.055999994277954, 0.0, 0.0, 0.0, 0.0, 0.0, 1.6218604303533068E9, 2021-05-24 14:47:10.353
32.0, -163.7290802001953, -49.86782455444336, 122.515380859375, 49.54993438720703, -0.08000000566244125, 0.0, 1.055999994277954, 0.0, 0.0, 0.0, 0.0, 0.0, 1.6218604303533068E9, 2021-05-24 14:47:10.353
33.0, -233.6652069091797, -102.08805084228516, 52.45957565307617, -11.215959548950195, -0.08000000566244125, 0.0, 1.055999994277954, 0.0, 0.0, 0.0, 0.0, 0.0, 1.6218604303693616E9, 2021-05-24 14:47:10.369
33.0, -190.19635009765625, -84.92190551757812, 89.31255340576172, 7.247926235198975, -0.08000000566244125, 0.0, 1.055999994277954, 0.0, 0.0, 0.0, 0.0, 0.0, 1.6218604303693616E9, 2021-05-24 14:47:10.369
34.0, -110.77583312988281, -22.495498657226562, 169.88870239257812, 80.60980224609375, -0.08000000566244125, 0.0, 1.055999994277954, 0.0, 0.0, 0.0, 0.0, 0.0, 1.6218604303700936E9, 2021-05-24 14:47:10.370
34.0, -161.16725158691406, -49.44521713256836, 115.88079833984375, 51.038414001464844, -0.08000000566244125, 0.0, 1.055999994277954, 0.0, 0.0, 0.0, 0.0, 0.0, 1.6218604303700936E9, 2021-05-24 14:47:10.370
35.0, -245.4571075439453, -107.58943939208984, 41.43809127807617, -17.278337478637695, -0.08000000566244125, 0.0, 1.055999994277954, 0.0, 0.0, 0.0, 0.0, 0.0, 1.621860430370744E9, 2021-05-24 14:47:10.370
35.0, -190.61895751953125, -92.16983795166016, 87.76049041748047, 12.536144256591797, -0.08000000566244125, 0.0, 1.055999994277954, 0.0, 0.0, 0.0, 0.0, 0.0, 1.621860430370744E9, 2021-05-24 14:47:10.370
36.0, -113.70417785644531, -22.992904663085938, 166.2572479248047, 80.89029693603516, -0.08000000566244125, 0.0, 1.055999994277954, 0.0, 0.0, 0.0, 0.0, 0.0, 1.6218604303715248E9, 2021-05-24 14:47:10.371
36.0, -168.78916931152344, -45.810035705566406, 121.22137451171875, 45.510841369628906, -0.08000000566244125, 0.0, 1.055999994277954, 0.0, 0.0, 0.0, 0.0, 0.0, 1.6218604303715248E9, 2021-05-24 14:47:10.371
37.0, -242.9551239013672, -103.16887664794922, 39.18667221069336, -13.119568824768066, -0.08000000566244125, 0.0, 1.055999994277954, 0.0, 0.0, 0.0, 0.0, 0.0, 1.621860430382218E9, 2021-05-24 14:47:10.382
37.0, -191.34075927734375, -85.03036499023438, 86.91901397705078, 13.987225532531738, -0.08000000566244125, 0.0, 1.055999994277954, 0.0, 0.0, 0.0, 0.0, 0.0, 1.621860430382218E9, 2021-05-24 14:47:10.382
38.0, -113.52840423583984, -19.986024856567383, 173.1349334716797, 88.27285766601562, -0.08000000566244125, 0.0, 1.055999994277954, 0.0, 0.0, 0.0, 0.0, 0.0, 1.6218604304143617E9, 2021-05-24 14:47:10.414
38.0, -167.77565002441406, -48.035274505615234, 124.29183197021484, 50.765403747558594, -0.08000000566244125, 0.0, 1.055999994277954, 0.0, 0.0, 0.0, 0.0, 0.0, 1.6218604304143617E9, 2021-05-24 14:47:10.414
39.0, -242.7830810546875, -103.93556213378906, 52.530635833740234, -10.034152030944824, -0.08000000566244125, 0.0, 1.055999994277954, 0.0, 0.0, 0.0, 0.0, 0.0, 1.6218604304150884E9, 2021-05-24 14:47:10.415
39.0, -193.07608032226562, -98.441650390625, 88.73286437988281, 12.11353588104248, -0.08000000566244125, 0.0, 1.055999994277954, 0.0, 0.0, 0.0, 0.0, 0.0, 1.6218604304150884E9, 2021-05-24 14:47:10.415
40.0, -102.75000762939453, -24.795536041259766, 177.35726928710938, 82.07958221435547, -0.08000000566244125, 0.0, 1.055999994277954, 0.0, 0.0, 0.0, 0.0, 0.0, 1.6218604304158492E9, 2021-05-24 14:47:10.415
40.0, -156.50360107421875, -54.2322883605957, 123.4765396118164, 46.69639205932617, -0.08000000566244125, 0.0, 1.055999994277954, 0.0, 0.0, 0.0, 0.0, 0.0, 1.6218604304158492E9, 2021-05-24 14:47:10.415
41.0, -234.71612548828125, -104.4853286743164, 41.76346206665039, -12.868995666503906, -0.08000000566244125, 0.0, 1.055999994277954, 0.0, 0.0, 0.0, 0.0, 0.0, 1.6218604304166694E9, 2021-05-24 14:47:10.416
41.0, -190.67132568359375, -92.1810531616211, 86.14485931396484, 5.377975940704346, -0.08000000566244125, 0.0, 1.055999994277954, 0.0, 0.0, 0.0, 0.0, 0.0, 1.6218604304166694E9, 2021-05-24 14:47:10.416
42.0, -109.2462158203125, -25.539775848388672, 169.63064575195312, 78.68001556396484, -0.08000000566244125, 0.0, 1.055999994277954, 0.0, 0.0, 0.0, 0.0, 0.0, 1.6218604304272244E9, 2021-05-24 14:47:10.427
42.0, -157.93223571777344, -46.9843635559082, 123.45783996582031, 51.15435028076172, -0.08000000566244125, 0.0, 1.055999994277954, 0.0, 0.0, 0.0, 0.0, 0.0, 1.6218604304272244E9, 2021-05-24 14:47:10.427
43.0, -233.19772338867188, -110.7533950805664, 42.376808166503906, -18.755598068237305, -0.08000000566244125, 0.0, 1.055999994277954, 0.0, 0.0, 0.0, 0.0, 0.0, 1.621860430442306E9, 2021-05-24 14:47:10.442
43.0, -188.79388427734375, -88.55335235595703, 74.01261901855469, 7.573297500610352, -0.08000000566244125, 0.0, 1.055999994277954, 0.0, 0.0, 0.0, 0.0, 0.0, 1.621860430442306E9, 2021-05-24 14:47:10.442
44.0, -99.13726806640625, -18.261932373046875, 172.97410583496094, 83.42221069335938, -0.08000000566244125, 0.0, 1.055999994277954, 0.0, 0.0, 0.0, 0.0, 0.0, 1.621860430457892E9, 2021-05-24 14:47:10.457
44.0, -160.30706787109375, -50.563446044921875, 116.58763885498047, 41.04540252685547, -0.08000000566244125, 0.0, 1.055999994277954, 0.0, 0.0, 0.0, 0.0, 0.0, 1.621860430457892E9, 2021-05-24 14:47:10.457
45.0, -238.43731689453125, -100.28167724609375, 34.12284851074219, -16.006771087646484, -0.08000000566244125, 0.0, 1.055999994277954, 0.0, 0.0, 0.0, 0.0, 0.0, 1.621860430458592E9, 2021-05-24 14:47:10.458
45.0, -190.74237060546875, -83.17911529541016, 79.5140151977539, 11.690927505493164, -0.08000000566244125, 0.0, 1.055999994277954, 0.0, 0.0, 0.0, 0.0, 0.0, 1.621860430458592E9, 2021-05-24 14:47:10.458
46.0, -115.15525817871094, -15.034398078918457, 164.50323486328125, 88.20928192138672, -0.08000000566244125, 0.0, 1.055999994277954, 0.0, 0.0, 0.0, 0.0, 0.0, 1.62186043047222E9, 2021-05-24 14:47:10.472
46.0, -167.59988403320312, -44.516029357910156, 120.75762939453125, 47.758522033691406, -0.08000000566244125, 0.0, 1.055999994277954, 0.0, 0.0, 0.0, 0.0, 0.0, 1.62186043047222E9, 2021-05-24 14:47:10.472
47.0, -239.0656280517578, -99.82540893554688, 44.459930419921875, -13.762831687927246, -0.08000000566244125, 0.0, 1.055999994277954, 0.0, 0.0, 0.0, 0.0, 0.0, 1.6218604304879055E9, 2021-05-24 14:47:10.487
47.0, -193.63331604003906, -84.88076782226562, 82.32267761230469, 13.669334411621094, -0.08000000566244125, 0.0, 1.055999994277954, 0.0, 0.0, 0.0, 0.0, 0.0, 1.6218604304879055E9, 2021-05-24 14:47:10.487
48.0, -100.69680786132812, -12.595983505249023, 168.7816925048828, 86.45526885986328, -0.08000000566244125, 0.0, 1.055999994277954, 0.0, 0.0, 0.0, 0.0, 0.0, 1.6218604304886196E9, 2021-05-24 14:47:10.488
48.0, -159.11778259277344, -44.05976104736328, 117.66473388671875, 49.602294921875, -0.08000000566244125, 0.0, 1.055999994277954, 0.0, 0.0, 0.0, 0.0, 0.0, 1.6218604304886196E9, 2021-05-24 14:47:10.488
49.0, -247.24478149414062, -99.69451141357422, 40.04310989379883, -15.50936508178711, -0.08000000566244125, 0.0, 1.055999994277954, 0.0, 0.0, 0.0, 0.0, 0.0, 1.6218604305022607E9, 2021-05-24 14:47:10.502
49.0, -196.7449188232422, -77.50568389892578, 83.852294921875, 12.057437896728516, -0.08000000566244125, 0.0, 1.055999994277954, 0.0, 0.0, 0.0, 0.0, 0.0, 1.6218604305022607E9, 2021-05-24 14:47:10.502
50.0, -110.72348022460938, -11.208479881286621, 165.075439453125, 88.47481536865234, -0.08000000566244125, 0.0, 1.055999994277954, 0.0, 0.0, 0.0, 0.0, 0.0, 1.6218604305180092E9, 2021-05-24 14:47:10.518
50.0, -159.72738647460938, -40.46571731567383, 108.19530487060547, 41.441829681396484, -0.08000000566244125, 0.0, 1.055999994277954, 0.0, 0.0, 0.0, 0.0, 0.0, 1.6218604305180092E9, 2021-05-24 14:47:10.518
51.0, -249.79539489746094, -96.82227325439453, 36.8080940246582, -18.041276931762695, -0.08000000566244125, 0.0, 1.055999994277954, 0.0, 0.0, 0.0, 0.0, 0.0, 1.6218604305186388E9, 2021-05-24 14:47:10.518
51.0, -196.73744201660156, -74.18839263916016, 83.93457794189453, 9.843416213989258, -0.08000000566244125, 0.0, 1.055999994277954, 0.0, 0.0, 0.0, 0.0, 0.0, 1.6218604305186388E9, 2021-05-24 14:47:10.518
52.0, -119.45240783691406, -12.581023216247559, 162.55101013183594, 87.45755767822266, -0.08000000566244125, 0.0, 1.055999994277954, 0.0, 0.0, 0.0, 0.0, 0.0, 1.6218604305323007E9, 2021-05-24 14:47:10.532
52.0, -165.61773681640625, -41.99907684326172, 112.92253875732422, 50.346534729003906, -0.08000000566244125, 0.0, 1.055999994277954, 0.0, 0.0, 0.0, 0.0, 0.0, 1.6218604305323007E9, 2021-05-24 14:47:10.532
53.0, -240.2025604248047, -102.75000762939453, 37.85526657104492, -13.048510551452637, -0.08000000566244125, 0.0, 1.055999994277954, 0.0, 0.0, 0.0, 0.0, 0.0, 1.621860430547943E9, 2021-05-24 14:47:10.547
53.0, -196.67385864257812, -78.02178955078125, 83.3698501586914, 14.062024116516113, -0.08000000566244125, 0.0, 1.055999994277954, 0.0, 0.0, 0.0, 0.0, 0.0, 1.621860430547943E9, 2021-05-24 14:47:10.547
54.0, -111.50885772705078, -7.644355297088623, 160.4566650390625, 85.46045684814453, -0.08000000566244125, 0.0, 1.055999994277954, 0.0, 0.0, 0.0, 0.0, 0.0, 1.6218604305486953E9, 2021-05-24 14:47:10.548
54.0, -160.50527954101562, -38.03852081298828, 117.78814697265625, 52.096805572509766, -0.08000000566244125, 0.0, 1.055999994277954, 0.0, 0.0, 0.0, 0.0, 0.0, 1.6218604305486953E9, 2021-05-24 14:47:10.548
55.0, -242.55494689941406, -96.43705749511719, 40.32734298706055, -13.9236478805542, -0.08000000566244125, 0.0, 1.055999994277954, 0.0, 0.0, 0.0, 0.0, 0.0, 1.6218604305622375E9, 2021-05-24 14:47:10.562
55.0, -197.94168090820312, -83.93831634521484, 76.9260025024414, 11.23091983795166, -0.08000000566244125, 0.0, 1.055999994277954, 0.0, 0.0, 0.0, 0.0, 0.0, 1.6218604305622375E9, 2021-05-24 14:47:10.562
56.0, -119.8675308227539, -8.23151969909668, 165.56536865234375, 83.91587829589844, -0.08000000566244125, 0.0, 1.055999994277954, 0.0, 0.0, 0.0, 0.0, 0.0, 1.621860430577943E9, 2021-05-24 14:47:10.577
56.0, -166.06651306152344, -44.85261917114258, 112.8776626586914, 51.42362594604492, -0.08000000566244125, 0.0, 1.055999994277954, 0.0, 0.0, 0.0, 0.0, 0.0, 1.621860430577943E9, 2021-05-24 14:47:10.577
57.0, -251.40354919433594, -108.52816009521484, 30.132373809814453, -19.073490142822266, -0.08000000566244125, 0.0, 1.055999994277954, 0.0, 0.0, 0.0, 0.0, 0.0, 1.6218604305786388E9, 2021-05-24 14:47:10.578
57.0, -195.5668487548828, -83.71392059326172, 82.48348999023438, 12.25565242767334, -0.08000000566244125, 0.0, 1.055999994277954, 0.0, 0.0, 0.0, 0.0, 0.0, 1.6218604305786388E9, 2021-05-24 14:47:10.578
58.0, -110.23728942871094, -16.938007354736328, 166.3021240234375, 80.71826171875, -0.08000000566244125, 0.0, 1.055999994277954, 0.0, 0.0, 0.0, 0.0, 0.0, 1.6218604305922058E9, 2021-05-24 14:47:10.592
58.0, -164.29380798339844, -45.80629348754883, 110.2859115600586, 47.14143753051758, -0.08000000566244125, 0.0, 1.055999994277954, 0.0, 0.0, 0.0, 0.0, 0.0, 1.6218604305922058E9, 2021-05-24 14:47:10.592
59.0, -243.5834197998047, -100.03484344482422, 31.95744514465332, -15.292450904846191, -0.08000000566244125, 0.0, 1.055999994277954, 0.0, 0.0, 0.0, 0.0, 0.0, 1.6218604306080203E9, 2021-05-24 14:47:10.608
59.0, -193.22567749023438, -85.14256286621094, 86.34680938720703, 11.051403999328613, -0.08000000566244125, 0.0, 1.055999994277954, 0.0, 0.0, 0.0, 0.0, 0.0, 1.6218604306080203E9, 2021-05-24 14:47:10.608
60.0, -110.9291763305664, -9.839676856994629, 167.89158630371094, 83.61294555664062, -0.08000000566244125, 0.0, 1.055999994277954, 0.0, 0.0, 0.0, 0.0, 0.0, 1.6218604306086173E9, 2021-05-24 14:47:10.608
60.0, -166.57888793945312, -43.50251770019531, 113.45734405517578, 49.131065368652344, -0.08000000566244125, 0.0, 1.055999994277954, 0.0, 0.0, 0.0, 0.0, 0.0, 1.6218604306086173E9, 2021-05-24 14:47:10.608
61.0, -251.30258178710938, -108.25140380859375, 27.361108779907227, -12.491266250610352, -0.08000000566244125, 0.0, 1.055999994277954, 0.0, 0.0, 0.0, 0.0, 0.0, 1.6218604306222403E9, 2021-05-24 14:47:10.622
61.0, -194.85626220703125, -85.34825897216797, 80.7818374633789, 14.469673156738281, -0.08000000566244125, 0.0, 1.055999994277954, 0.0, 0.0, 0.0, 0.0, 0.0, 1.6218604306222403E9, 2021-05-24 14:47:10.622
62.0, -113.13197326660156, -19.750411987304688, 161.60855102539062, 84.18888854980469, -0.06400000303983688, 0.0, 1.055999994277954, 0.0, 0.0, 0.0, 0.0, 0.0, 1.6218604306378984E9, 2021-05-24 14:47:10.637
62.0, -158.5044403076172, -42.799415588378906, 108.22522735595703, 50.810279846191406, -0.06400000303983688, 0.0, 1.055999994277954, 0.0, 0.0, 0.0, 0.0, 0.0, 1.6218604306378984E9, 2021-05-24 14:47:10.637
63.0, -239.8210906982422, -100.4948501586914, 32.08460235595703, -7.853789806365967, -0.06400000303983688, 0.0, 1.055999994277954, 0.0, 0.0, 0.0, 0.0, 0.0, 1.6218604306387205E9, 2021-05-24 14:47:10.638
63.0, -186.93890380859375, -86.64226531982422, 81.10720825195312, 15.382208824157715, -0.06400000303983688, 0.0, 1.055999994277954, 0.0, 0.0, 0.0, 0.0, 0.0, 1.6218604306387205E9, 2021-05-24 14:47:10.638
64.0, -105.24452209472656, -12.532404899597168, 163.77395629882812, 84.04302978515625, -0.06400000303983688, 0.0, 1.055999994277954, 0.0, 0.0, 0.0, 0.0, 0.0, 1.621860430652234E9, 2021-05-24 14:47:10.652
64.0, -169.55584716796875, -42.30200958251953, 119.20931243896484, 45.85491180419922, -0.06400000303983688, 0.0, 1.055999994277954, 0.0, 0.0, 0.0, 0.0, 0.0, 1.621860430652234E9, 2021-05-24 14:47:10.652
65.0, -240.9654998779297, -96.35104370117188, 39.923431396484375, -9.342269897460938, -0.06400000303983688, 0.0, 1.055999994277954, 0.0, 0.0, 0.0, 0.0, 0.0, 1.6218604306679757E9, 2021-05-24 14:47:10.667
65.0, -194.1195068359375, -77.83480072021484, 88.07464599609375, 16.216205596923828, -0.06400000303983688, 0.0, 1.055999994277954, 0.0, 0.0, 0.0, 0.0, 0.0, 1.6218604306679757E9, 2021-05-24 14:47:10.667
66.0, -117.42537689208984, -13.493558883666992, 169.63064575195312, 85.32582092285156, -0.06400000303983688, 0.0, 1.055999994277954, 0.0, 0.0, 0.0, 0.0, 0.0, 1.6218604306686852E9, 2021-05-24 14:47:10.668
66.0, -168.2057342529297, -49.9837646484375, 116.34080505371094, 48.267147064208984, -0.06400000303983688, 0.0, 1.055999994277954, 0.0, 0.0, 0.0, 0.0, 0.0, 1.6218604306686852E9, 2021-05-24 14:47:10.668
67.0, -248.25082397460938, -99.02133178710938, 37.387779235839844, -9.028118133544922, -0.06400000303983688, 0.0, 1.055999994277954, 0.0, 0.0, 0.0, 0.0, 0.0, 1.6218604306822913E9, 2021-05-24 14:47:10.682
67.0, -202.48565673828125, -78.593994140625, 79.34197998046875, 15.786117553710938, -0.06400000303983688, 0.0, 1.055999994277954, 0.0, 0.0, 0.0, 0.0, 0.0, 1.6218604306822913E9, 2021-05-24 14:47:10.682
68.0, -117.4964370727539, -8.414774894714355, 165.8458709716797, 86.41038513183594, -0.06400000303983688, 0.0, 1.055999994277954, 0.0, 0.0, 0.0, 0.0, 0.0, 1.621860430730066E9, 2021-05-24 14:47:10.730
68.0, -166.5714111328125, -40.23384475708008, 110.3270492553711, 50.537269592285156, -0.06400000303983688, 0.0, 1.055999994277954, 0.0, 0.0, 0.0, 0.0, 0.0, 1.621860430730066E9, 2021-05-24 14:47:10.730
69.0, -240.46434020996094, -95.46468353271484, 34.250003814697266, -11.919060707092285, -0.06400000303983688, 0.0, 1.055999994277954, 0.0, 0.0, 0.0, 0.0, 0.0, 1.621860430730685E9, 2021-05-24 14:47:10.730
69.0, -192.61231994628906, -78.28732299804688, 84.42823791503906, 11.578730583190918, -0.06400000303983688, 0.0, 1.055999994277954, 0.0, 0.0, 0.0, 0.0, 0.0, 1.621860430730685E9, 2021-05-24 14:47:10.730
70.0, -112.28675842285156, -6.556044578552246, 166.6499481201172, 79.30831909179688, -0.06400000303983688, 0.0, 1.055999994277954, 0.0, 0.0, 0.0, 0.0, 0.0, 1.62186043073148E9, 2021-05-24 14:47:10.731
70.0, -159.12899780273438, -41.13890075683594, 118.958740234375, 46.59541320800781, -0.06400000303983688, 0.0, 1.055999994277954, 0.0, 0.0, 0.0, 0.0, 0.0, 1.62186043073148E9, 2021-05-24 14:47:10.731
71.0, -239.28253173828125, -100.03484344482422, 41.56524658203125, -18.063716888427734, -0.06400000303983688, 0.0, 1.055999994277954, 0.0, 0.0, 0.0, 0.0, 0.0, 1.6218604307323053E9, 2021-05-24 14:47:10.732
71.0, -193.233154296875, -87.5622787475586, 77.44584655761719, 8.545671463012695, -0.06400000303983688, 0.0, 1.055999994277954, 0.0, 0.0, 0.0, 0.0, 0.0, 1.6218604307323053E9, 2021-05-24 14:47:10.732
72.0, -111.8566665649414, -20.973358154296875, 160.60626220703125, 79.35693359375, -0.08000000566244125, 0.0, 1.055999994277954, 0.0, 0.0, 0.0, 0.0, 0.0, 1.6218604307429605E9, 2021-05-24 14:47:10.742
72.0, -165.415771484375, -46.756229400634766, 106.25055694580078, 45.21165084838867, -0.08000000566244125, 0.0, 1.055999994277954, 0.0, 0.0, 0.0, 0.0, 0.0, 1.6218604307429605E9, 2021-05-24 14:47:10.742
73.0, -251.02957153320312, -96.90081024169922, 40.19644546508789, -15.894575119018555, -0.08000000566244125, 0.0, 1.055999994277954, 0.0, 0.0, 0.0, 0.0, 0.0, 1.6218604307436492E9, 2021-05-24 14:47:10.743
73.0, -197.82200622558594, -79.38311767578125, 84.62271881103516, 6.447587490081787, -0.08000000566244125, 0.0, 1.055999994277954, 0.0, 0.0, 0.0, 0.0, 0.0, 1.6218604307436492E9, 2021-05-24 14:47:10.743
74.0, -115.7125015258789, -10.7073335647583, 167.86915588378906, 83.5306625366211, -0.08000000566244125, 0.0, 1.055999994277954, 0.0, 0.0, 0.0, 0.0, 0.0, 1.6218604307578766E9, 2021-05-24 14:47:10.757
74.0, -165.72618103027344, -42.990150451660156, 119.463623046875, 44.459930419921875, -0.08000000566244125, 0.0, 1.055999994277954, 0.0, 0.0, 0.0, 0.0, 0.0, 1.6218604307578766E9, 2021-05-24 14:47:10.757
75.0, -245.60296630859375, -98.36685180664062, 40.67515182495117, -17.528911590576172, -0.08000000566244125, 0.0, 1.055999994277954, 0.0, 0.0, 0.0, 0.0, 0.0, 1.6218604307586224E9, 2021-05-24 14:47:10.758
75.0, -199.6732635498047, -81.05110931396484, 87.59219360351562, 7.472320079803467, -0.08000000566244125, 0.0, 1.055999994277954, 0.0, 0.0, 0.0, 0.0, 0.0, 1.6218604307586224E9, 2021-05-24 14:47:10.758
76.0, -113.39002990722656, -9.663901329040527, 166.01416015625, 78.05171203613281, -0.08000000566244125, 0.0, 1.055999994277954, 0.0, 0.0, 0.0, 0.0, 0.0, 1.6218604307722201E9, 2021-05-24 14:47:10.772
76.0, -164.42843627929688, -43.48755645751953, 111.12738800048828, 41.43435287475586, -0.08000000566244125, 0.0, 1.055999994277954, 0.0, 0.0, 0.0, 0.0, 0.0, 1.6218604307722201E9, 2021-05-24 14:47:10.772
77.0, -244.279052734375, -94.02482604980469, 41.640045166015625, -18.35542869567871, -0.08000000566244125, 0.0, 1.055999994277954, 0.0, 0.0, 0.0, 0.0, 0.0, 1.6218604307879038E9, 2021-05-24 14:47:10.787
77.0, -198.5363311767578, -77.0269775390625, 82.52088928222656, 14.93716049194336, -0.08000000566244125, 0.0, 1.055999994277954, 0.0, 0.0, 0.0, 0.0, 0.0, 1.6218604307879038E9, 2021-05-24 14:47:10.787
78.0, -114.63541412353516, -5.441554546356201, 164.97821044921875, 84.86955261230469, -0.08000000566244125, 0.0, 1.055999994277954, 0.0, 0.0, 0.0, 0.0, 0.0, 1.6218604307886093E9, 2021-05-24 14:47:10.788
78.0, -173.4752655029297, -43.648372650146484, 104.36564636230469, 46.90208435058594, -0.08000000566244125, 0.0, 1.055999994277954, 0.0, 0.0, 0.0, 0.0, 0.0, 1.6218604307886093E9, 2021-05-24 14:47:10.788
79.0, -247.659912109375, -100.28915405273438, 36.98012924194336, -16.06661033630371, -0.08000000566244125, 0.0, 1.055999994277954, 0.0, 0.0, 0.0, 0.0, 0.0, 1.6218604308022785E9, 2021-05-24 14:47:10.802
79.0, -192.68711853027344, -77.53560638427734, 87.31170654296875, 12.068656921386719, -0.08000000566244125, 0.0, 1.055999994277954, 0.0, 0.0, 0.0, 0.0, 0.0, 1.6218604308022785E9, 2021-05-24 14:47:10.802
80.0, -116.17999267578125, -9.230072975158691, 162.7454833984375, 82.49097442626953, -0.08000000566244125, 0.0, 1.055999994277954, 0.0, 0.0, 0.0, 0.0, 0.0, 1.6218604308179135E9, 2021-05-24 14:47:10.817
80.0, -168.17208862304688, -42.31696701049805, 111.0937271118164, 47.373313903808594, -0.08000000566244125, 0.0, 1.055999994277954, 0.0, 0.0, 0.0, 0.0, 0.0, 1.6218604308179135E9, 2021-05-24 14:47:10.817
81.0, -237.0572967529297, -97.15512084960938, 35.21489715576172, -13.66185474395752, -0.08000000566244125, 0.0, 1.055999994277954, 0.0, 0.0, 0.0, 0.0, 0.0, 1.6218604308186104E9, 2021-05-24 14:47:10.818
81.0, -185.45790100097656, -71.79486083984375, 84.64515686035156, 12.046217918395996, -0.08000000566244125, 0.0, 1.055999994277954, 0.0, 0.0, 0.0, 0.0, 0.0, 1.6218604308186104E9, 2021-05-24 14:47:10.818
82.0, -108.4608383178711, -11.275798797607422, 169.64559936523438, 86.55624389648438, -0.08000000566244125, 0.0, 1.055999994277954, 0.0, 0.0, 0.0, 0.0, 0.0, 1.6218604308486845E9, 2021-05-24 14:47:10.848
82.0, -164.59300231933594, -32.42119216918945, 114.88972473144531, 44.47863006591797, -0.08000000566244125, 0.0, 1.055999994277954, 0.0, 0.0, 0.0, 0.0, 0.0, 1.6218604308486845E9, 2021-05-24 14:47:10.848
83.0, -244.43612670898438, -96.65023803710938, 38.70796585083008, -13.785271644592285, -0.08000000566244125, 0.0, 1.055999994277954, 0.0, 0.0, 0.0, 0.0, 0.0, 1.6218604308494253E9, 2021-05-24 14:47:10.849
83.0, -189.54934692382812, -79.44669342041016, 85.28842163085938, 11.017745018005371, -0.08000000566244125, 0.0, 1.055999994277954, 0.0, 0.0, 0.0, 0.0, 0.0, 1.6218604308494253E9, 2021-05-24 14:47:10.849
84.0, -110.83941650390625, -7.745332717895508, 163.19427490234375, 76.95592498779297, -0.08000000566244125, 0.0, 1.055999994277954, 0.0, 0.0, 0.0, 0.0, 0.0, 1.6218604308501384E9, 2021-05-24 14:47:10.850
84.0, -166.1375732421875, -36.45654296875, 116.09771728515625, 39.7551383972168, -0.08000000566244125, 0.0, 1.055999994277954, 0.0, 0.0, 0.0, 0.0, 0.0, 1.6218604308501384E9, 2021-05-24 14:47:10.850
85.0, -239.21148681640625, -94.95231628417969, 42.22346878051758, -18.183393478393555, -0.08000000566244125, 0.0, 1.055999994277954, 0.0, 0.0, 0.0, 0.0, 0.0, 1.6218604308622434E9, 2021-05-24 14:47:10.862
85.0, -187.6756591796875, -71.15907287597656, 89.27141571044922, 3.4332282543182373, -0.08000000566244125, 0.0, 1.055999994277954, 0.0, 0.0, 0.0, 0.0, 0.0, 1.6218604308622434E9, 2021-05-24 14:47:10.862
86.0, -113.22920989990234, -4.3644633293151855, 167.4128875732422, 75.0597915649414, -0.08000000566244125, 0.0, 1.055999994277954, 0.0, 0.0, 0.0, 0.0, 0.0, 1.6218604308779457E9, 2021-05-24 14:47:10.877
86.0, -160.9353790283203, -36.32938766479492, 113.58076477050781, 39.89351272583008, -0.08000000566244125, 0.0, 1.055999994277954, 0.0, 0.0, 0.0, 0.0, 0.0, 1.6218604308779457E9, 2021-05-24 14:47:10.877
87.0, -240.38206481933594, -99.0512466430664, 31.164587020874023, -23.927879333496094, -0.08000000566244125, 0.0, 1.055999994277954, 0.0, 0.0, 0.0, 0.0, 0.0, 1.621860430878646E9, 2021-05-24 14:47:10.878
87.0, -186.08619689941406, -75.64321899414062, 81.39144134521484, 12.379069328308105, -0.08000000566244125, 0.0, 1.055999994277954, 0.0, 0.0, 0.0, 0.0, 0.0, 1.621860430878646E9, 2021-05-24 14:47:10.878
88.0, -116.8531723022461, -3.893235921859741, 156.93368530273438, 77.408447265625, -0.08000000566244125, 0.0, 1.055999994277954, 0.0, 0.0, 0.0, 0.0, 0.0, 1.6218604308921828E9, 2021-05-24 14:47:10.892
88.0, -163.35134887695312, -45.705318450927734, 113.23294830322266, 45.16303253173828, -0.08000000566244125, 0.0, 1.055999994277954, 0.0, 0.0, 0.0, 0.0, 0.0, 1.6218604308921828E9, 2021-05-24 14:47:10.892
89.0, -237.46868896484375, -99.19336700439453, 33.83113479614258, -18.347949981689453, -0.08000000566244125, 0.0, 1.055999994277954, 0.0, 0.0, 0.0, 0.0, 0.0, 1.6218604309077475E9, 2021-05-24 14:47:10.907
89.0, -185.77578735351562, -79.62995147705078, 84.28612518310547, 8.968279838562012, -0.08000000566244125, 0.0, 1.055999994277954, 0.0, 0.0, 0.0, 0.0, 0.0, 1.6218604309077475E9, 2021-05-24 14:47:10.907
90.0, -106.69186401367188, -16.339622497558594, 159.85079956054688, 80.81175994873047, -0.08000000566244125, 0.0, 1.055999994277954, 0.0, 0.0, 0.0, 0.0, 0.0, 1.6218604309228933E9, 2021-05-24 14:47:10.922
90.0, -156.0548095703125, -45.09197235107422, 116.16876983642578, 45.67913818359375, -0.08000000566244125, 0.0, 1.055999994277954, 0.0, 0.0, 0.0, 0.0, 0.0, 1.6218604309228933E9, 2021-05-24 14:47:10.922
91.0, -237.9099884033203, -98.43790435791016, 32.82136154174805, -14.432273864746094, -0.08000000566244125, 0.0, 1.055999994277954, 0.0, 0.0, 0.0, 0.0, 0.0, 1.6218604309236178E9, 2021-05-24 14:47:10.923
91.0, -189.08934020996094, -76.0994873046875, 80.18719482421875, 11.967679977416992, -0.08000000566244125, 0.0, 1.055999994277954, 0.0, 0.0, 0.0, 0.0, 0.0, 1.6218604309236178E9, 2021-05-24 14:47:10.923
92.0, -108.49076080322266, -17.43915367126465, 162.04238891601562, 77.43463134765625, -0.08000000566244125, 0.0, 1.055999994277954, 0.0, 0.0, 0.0, 0.0, 0.0, 1.6218604309380388E9, 2021-05-24 14:47:10.938
92.0, -153.6276092529297, -54.10887145996094, 109.20881652832031, 42.24216842651367, -0.08000000566244125, 0.0, 1.055999994277954, 0.0, 0.0, 0.0, 0.0, 0.0, 1.6218604309380388E9, 2021-05-24 14:47:10.938
93.0, -235.6548309326172, -104.56011962890625, 32.159400939941406, -16.85198974609375, -0.08000000566244125, 0.0, 1.055999994277954, 0.0, 0.0, 0.0, 0.0, 0.0, 1.6218604309386332E9, 2021-05-24 14:47:10.938
93.0, -186.38912963867188, -81.90380859375, 85.2323226928711, 10.875629425048828, -0.08000000566244125, 0.0, 1.055999994277954, 0.0, 0.0, 0.0, 0.0, 0.0, 1.6218604309386332E9, 2021-05-24 14:47:10.938
94.0, -103.8832015991211, -9.226333618164062, 166.37318420410156, 82.87244415283203, -0.08000000566244125, 0.0, 1.055999994277954, 0.0, 0.0, 0.0, 0.0, 0.0, 1.6218604309849524E9, 2021-05-24 14:47:10.984
94.0, -165.90196228027344, -43.67455291748047, 109.6052474975586, 43.54365539550781, -0.08000000566244125, 0.0, 1.055999994277954, 0.0, 0.0, 0.0, 0.0, 0.0, 1.6218604309849524E9, 2021-05-24 14:47:10.984
95.0, -245.74134826660156, -99.29434204101562, 30.379207611083984, -18.142253875732422, -0.08000000566244125, 0.0, 1.055999994277954, 0.0, 0.0, 0.0, 0.0, 0.0, 1.6218604309857445E9, 2021-05-24 14:47:10.985
95.0, -190.59652709960938, -80.55370330810547, 81.55599975585938, 10.393181800842285, -0.08000000566244125, 0.0, 1.055999994277954, 0.0, 0.0, 0.0, 0.0, 0.0, 1.6218604309857445E9, 2021-05-24 14:47:10.985
96.0, -107.85871124267578, -15.023178100585938, 163.65428161621094, 79.19612121582031, -0.08000000566244125, 0.0, 1.055999994277954, 0.0, 0.0, 0.0, 0.0, 0.0, 1.6218604309864037E9, 2021-05-24 14:47:10.986
96.0, -159.09909057617188, -46.038169860839844, 115.95933532714844, 40.2600212097168, -0.08000000566244125, 0.0, 1.055999994277954, 0.0, 0.0, 0.0, 0.0, 0.0, 1.6218604309864037E9, 2021-05-24 14:47:10.986
97.0, -237.8389434814453, -103.29977416992188, 32.60444641113281, -25.83148956298828, -0.08000000566244125, 0.0, 1.055999994277954, 0.0, 0.0, 0.0, 0.0, 0.0, 1.6218604309871445E9, 2021-05-24 14:47:10.987
97.0, -193.5996551513672, -82.96220397949219, 88.41871643066406, 3.6538822650909424, -0.08000000566244125, 0.0, 1.055999994277954, 0.0, 0.0, 0.0, 0.0, 0.0, 1.6218604309871445E9, 2021-05-24 14:47:10.987
98.0, -105.54371643066406, -12.00507926940918, 167.26702880859375, 77.11299896240234, -0.08000000566244125, 0.0, 1.055999994277954, 0.0, 0.0, 0.0, 0.0, 0.0, 1.6218604309980016E9, 2021-05-24 14:47:10.998
98.0, -153.35833740234375, -46.09052658081055, 114.79248809814453, 43.10608673095703, -0.08000000566244125, 0.0, 1.055999994277954, 0.0, 0.0, 0.0, 0.0, 0.0, 1.6218604309980016E9, 2021-05-24 14:47:10.998
99.0, -236.7655792236328, -102.86595153808594, 42.60493850708008, -18.92763328552246, -0.08000000566244125, 0.0, 1.055999994277954, 0.0, 0.0, 0.0, 0.0, 0.0, 1.621860430998708E9, 2021-05-24 14:47:10.998
99.0, -183.7412872314453, -78.36212158203125, 87.01625061035156, 12.18459415435791, -0.08000000566244125, 0.0, 1.055999994277954, 0.0, 0.0, 0.0, 0.0, 0.0, 1.621860430998708E9, 2021-05-24 14:47:10.998
100.0, -108.75629425048828, -13.688034057617188, 167.6634521484375, 77.71511840820312, -0.08000000566244125, 0.0, 1.055999994277954, 0.0, 0.0, 0.0, 0.0, 0.0, 1.6218604310129104E9, 2021-05-24 14:47:11.012
100.0, -159.8657684326172, -36.18727111816406, 123.38677978515625, 50.713043212890625, -0.08000000566244125, 0.0, 1.055999994277954, 0.0, 0.0, 0.0, 0.0, 0.0, 1.6218604310129104E9, 2021-05-24 14:47:11.012
0.0, -242.38104248046875, -103.26050567626953, 32.095821380615234, -22.53102684020996, -0.08000000566244125, 0.0, 1.055999994277954, 0.0, 0.0, 0.0, 0.0, 0.0, 1.6218604310136337E9, 2021-05-24 14:47:11.013
1.0, -190.6432647705078, -73.81253814697266, 88.42619323730469, 9.452596664428711, -0.08000000566244125, 0.0, 1.055999994277954, 0.0, 0.0, 0.0, 0.0, 0.0, 1.621860431043599E9, 2021-05-24 14:47:11.043
1.0, -117.67034149169922, -15.369118690490723, 164.55934143066406, 77.1148681640625, -0.08000000566244125, 0.0, 1.055999994277954, 0.0, 0.0, 0.0, 0.0, 0.0, 1.621860431043599E9, 2021-05-24 14:47:11.043
2.0, -163.58509826660156, -45.36685562133789, 111.91650390625, 44.207489013671875, -0.08000000566244125, 0.0, 1.055999994277954, 0.0, 0.0, 0.0, 0.0, 0.0, 1.6218604310443368E9, 2021-05-24 14:47:11.044
2.0, -243.95555114746094, -104.28150177001953, 33.303810119628906, -15.556114196777344, -0.08000000566244125, 0.0, 1.055999994277954, 0.0, 0.0, 0.0, 0.0, 0.0, 1.6218604310443368E9, 2021-05-24 14:47:11.044
3.0, -192.79371643066406, -78.90628051757812, 84.9967041015625, 5.824893951416016, -0.08000000566244125, 0.0, 1.055999994277954, 0.0, 0.0, 0.0, 0.0, 0.0, 1.6218604310450575E9, 2021-05-24 14:47:11.045
3.0, -110.66551208496094, -14.538861274719238, 164.26014709472656, 80.18158721923828, -0.08000000566244125, 0.0, 1.055999994277954, 0.0, 0.0, 0.0, 0.0, 0.0, 1.6218604310450575E9, 2021-05-24 14:47:11.045
4.0, -154.46347045898438, -49.22643280029297, 110.47290802001953, 44.26358413696289, -0.08000000566244125, 0.0, 1.055999994277954, 0.0, 0.0, 0.0, 0.0, 0.0, 1.6218604310572665E9, 2021-05-24 14:47:11.057
4.0, -239.58734130859375, -103.99726867675781, 37.86274719238281, -20.245948791503906, -0.08000000566244125, 0.0, 1.055999994277954, 0.0, 0.0, 0.0, 0.0, 0.0, 1.6218604310572665E9, 2021-05-24 14:47:11.057
5.0, -185.6766815185547, -79.7627182006836, 88.57579040527344, 13.080300331115723, -0.08000000566244125, 0.0, 1.055999994277954, 0.0, 0.0, 0.0, 0.0, 0.0, 1.621860431073001E9, 2021-05-24 14:47:11.073
5.0, -108.9339370727539, -11.292628288269043, 164.4508819580078, 83.52879333496094, -0.08000000566244125, 0.0, 1.055999994277954, 0.0, 0.0, 0.0, 0.0, 0.0, 1.621860431073001E9, 2021-05-24 14:47:11.073
6.0, -167.22401428222656, -46.73191833496094, 113.36758422851562, 42.32257843017578, -0.08000000566244125, 0.0, 1.055999994277954, 0.0, 0.0, 0.0, 0.0, 0.0, 1.6218604310736735E9, 2021-05-24 14:47:11.073
6.0, -240.57467651367188, -107.72969055175781, 39.7775764465332, -14.542600631713867, -0.08000000566244125, 0.0, 1.055999994277954, 0.0, 0.0, 0.0, 0.0, 0.0, 1.6218604310736735E9, 2021-05-24 14:47:11.073
7.0, -193.59405517578125, -82.58260345458984, 86.8816146850586, 12.53427505493164, -0.08000000566244125, 0.0, 1.055999994277954, 0.0, 0.0, 0.0, 0.0, 0.0, 1.6218604311199512E9, 2021-05-24 14:47:11.119
7.0, -116.40251922607422, -16.090919494628906, 164.2339630126953, 80.86224365234375, -0.08000000566244125, 0.0, 1.055999994277954, 0.0, 0.0, 0.0, 0.0, 0.0, 1.6218604311199512E9, 2021-05-24 14:47:11.119
8.0, -163.46542358398438, -50.42320251464844, 111.31438446044922, 42.475914001464844, -0.08000000566244125, 0.0, 1.055999994277954, 0.0, 0.0, 0.0, 0.0, 0.0, 1.6218604311206944E9, 2021-05-24 14:47:11.120
8.0, -241.28900146484375, -102.9949722290039, 33.113075256347656, -15.413997650146484, -0.08000000566244125, 0.0, 1.055999994277954, 0.0, 0.0, 0.0, 0.0, 0.0, 1.6218604311206944E9, 2021-05-24 14:47:11.120
9.0, -195.40789794921875, -85.70167541503906, 82.36381530761719, 12.201423645019531, -0.08000000566244125, 0.0, 1.055999994277954, 0.0, 0.0, 0.0, 0.0, 0.0, 1.621860431121414E9, 2021-05-24 14:47:11.121
9.0, -114.78314208984375, -12.485655784606934, 165.86456298828125, 83.55497741699219, -0.08000000566244125, 0.0, 1.055999994277954, 0.0, 0.0, 0.0, 0.0, 0.0, 1.621860431121414E9, 2021-05-24 14:47:11.121
10.0, -170.53009033203125, -41.76533126831055, 112.16333770751953, 43.534305572509766, -0.08000000566244125, 0.0, 1.055999994277954, 0.0, 0.0, 0.0, 0.0, 0.0, 1.621860431122175E9, 2021-05-24 14:47:11.122
10.0, -243.90318298339844, -98.02838897705078, 37.724369049072266, -12.893304824829102, -0.08000000566244125, 0.0, 1.055999994277954, 0.0, 0.0, 0.0, 0.0, 0.0, 1.621860431122175E9, 2021-05-24 14:47:11.122
11.0, -192.87599182128906, -81.69998168945312, 86.63104248046875, 16.85759925842285, -0.08000000566244125, 0.0, 1.055999994277954, 0.0, 0.0, 0.0, 0.0, 0.0, 1.6218604311329896E9, 2021-05-24 14:47:11.132
11.0, -109.95492553710938, -14.06015396118164, 168.8527374267578, 84.65450286865234, -0.08000000566244125, 0.0, 1.055999994277954, 0.0, 0.0, 0.0, 0.0, 0.0, 1.6218604311329896E9, 2021-05-24 14:47:11.132
12.0, -163.83192443847656, -44.869449615478516, 108.99938201904297, 47.78657150268555, -0.08000000566244125, 0.0, 1.055999994277954, 0.0, 0.0, 0.0, 0.0, 0.0, 1.621860431133714E9, 2021-05-24 14:47:11.133
12.0, -248.09934997558594, -105.93827819824219, 33.3636474609375, -13.480469703674316, -0.08000000566244125, 0.0, 1.055999994277954, 0.0, 0.0, 0.0, 0.0, 0.0, 1.621860431133714E9, 2021-05-24 14:47:11.133
13.0, -186.89962768554688, -83.37171936035156, 89.18913269042969, 13.17005729675293, -0.08000000566244125, 0.0, 1.055999994277954, 0.0, 0.0, 0.0, 0.0, 0.0, 1.6218604311472485E9, 2021-05-24 14:47:11.147
13.0, -109.3939437866211, -14.598699569702148, 159.8545379638672, 81.52420806884766, -0.08000000566244125, 0.0, 1.055999994277954, 0.0, 0.0, 0.0, 0.0, 0.0, 1.6218604311472485E9, 2021-05-24 14:47:11.147
14.0, -157.88174438476562, -41.35020446777344, 113.75653839111328, 46.825416564941406, -0.08000000566244125, 0.0, 1.055999994277954, 0.0, 0.0, 0.0, 0.0, 0.0, 1.6218604311628957E9, 2021-05-24 14:47:11.162
14.0, -236.1690673828125, -93.93319702148438, 37.197044372558594, -19.849519729614258, -0.08000000566244125, 0.0, 1.055999994277954, 0.0, 0.0, 0.0, 0.0, 0.0, 1.6218604311628957E9, 2021-05-24 14:47:11.162
15.0, -189.31185913085938, -66.95355987548828, 92.11747741699219, 8.042654991149902, -0.08000000566244125, 0.0, 1.055999994277954, 0.0, 0.0, 0.0, 0.0, 0.0, 1.6218604311636648E9, 2021-05-24 14:47:11.163
15.0, -117.37863159179688, -15.874005317687988, 161.15228271484375, 74.8896255493164, -0.08000000566244125, 0.0, 1.055999994277954, 0.0, 0.0, 0.0, 0.0, 0.0, 1.6218604311636648E9, 2021-05-24 14:47:11.163
16.0, -164.1797332763672, -36.48833465576172, 119.16817474365234, 40.490028381347656, -0.08000000566244125, 0.0, 1.055999994277954, 0.0, 0.0, 0.0, 0.0, 0.0, 1.621860431177273E9, 2021-05-24 14:47:11.177
16.0, -248.36488342285156, -99.25507354736328, 38.55088806152344, -21.453935623168945, -0.08000000566244125, 0.0, 1.055999994277954, 0.0, 0.0, 0.0, 0.0, 0.0, 1.621860431177273E9, 2021-05-24 14:47:11.177
17.0, -191.5632781982422, -74.71385192871094, 86.49266815185547, 7.059061050415039, -0.08000000566244125, 0.0, 1.055999994277954, 0.0, 0.0, 0.0, 0.0, 0.0, 1.6218604311929016E9, 2021-05-24 14:47:11.192
17.0, -116.12576293945312, -10.716683387756348, 165.48309326171875, 75.9068832397461, -0.08000000566244125, 0.0, 1.055999994277954, 0.0, 0.0, 0.0, 0.0, 0.0, 1.6218604311929016E9, 2021-05-24 14:47:11.192
18.0, -169.52780151367188, -44.200008392333984, 116.08649444580078, 44.06911087036133, -0.08000000566244125, 0.0, 1.055999994277954, 0.0, 0.0, 0.0, 0.0, 0.0, 1.6218604311936817E9, 2021-05-24 14:47:11.193
18.0, -254.59930419921875, -99.9619140625, 30.5288028717041, -19.602685928344727, -0.08000000566244125, 0.0, 1.055999994277954, 0.0, 0.0, 0.0, 0.0, 0.0, 1.6218604311936817E9, 2021-05-24 14:47:11.193
19.0, -196.86647033691406, -83.39789581298828, 87.63333892822266, 15.795467376708984, -0.08000000566244125, 0.0, 1.055999994277954, 0.0, 0.0, 0.0, 0.0, 0.0, 1.6218604312237077E9, 2021-05-24 14:47:11.223
19.0, -116.09210205078125, -17.27646827697754, 164.09933471679688, 84.24311828613281, -0.08000000566244125, 0.0, 1.055999994277954, 0.0, 0.0, 0.0, 0.0, 0.0, 1.6218604312237077E9, 2021-05-24 14:47:11.223
20.0, -168.79476928710938, -46.75436019897461, 116.26600646972656, 44.31220626831055, -0.08000000566244125, 0.0, 1.040000081062317, 0.0, 0.0, 0.0, 0.0, 0.0, 1.6218604312243955E9, 2021-05-24 14:47:11.224
20.0, -257.39300537109375, -104.82378387451172, 37.496238708496094, -13.925517082214355, -0.08000000566244125, 0.0, 1.040000081062317, 0.0, 0.0, 0.0, 0.0, 0.0, 1.6218604312243955E9, 2021-05-24 14:47:11.224
21.0, -197.71168518066406, -87.40333557128906, 84.03929138183594, 12.313620567321777, -0.08000000566244125, 0.0, 1.040000081062317, 0.0, 0.0, 0.0, 0.0, 0.0, 1.6218604312251065E9, 2021-05-24 14:47:11.225
21.0, -109.6931381225586, -16.550928115844727, 165.56163024902344, 88.25228881835938, -0.08000000566244125, 0.0, 1.040000081062317, 0.0, 0.0, 0.0, 0.0, 0.0, 1.6218604312251065E9, 2021-05-24 14:47:11.225
22.0, -165.06983947753906, -45.85678482055664, 116.22113037109375, 44.446842193603516, -0.06400000303983688, 0.0, 1.040000081062317, 0.0, 0.0, 0.0, 0.0, 0.0, 1.6218604312373853E9, 2021-05-24 14:47:11.237
22.0, -245.5001220703125, -107.09390258789062, 35.02416229248047, -19.67000389099121, -0.06400000303983688, 0.0, 1.040000081062317, 0.0, 0.0, 0.0, 0.0, 0.0, 1.6218604312373853E9, 2021-05-24 14:47:11.237
23.0, -183.57485961914062, -78.47992706298828, 91.05534362792969, 9.920084953308105, -0.06400000303983688, 0.0, 1.040000081062317, 0.0, 0.0, 0.0, 0.0, 0.0, 1.6218604312529557E9, 2021-05-24 14:47:11.252
23.0, -117.68156433105469, -11.876051902770996, 170.8087158203125, 79.26531219482422, -0.06400000303983688, 0.0, 1.040000081062317, 0.0, 0.0, 0.0, 0.0, 0.0, 1.6218604312529557E9, 2021-05-24 14:47:11.252
24.0, -169.92422485351562, -41.83264923095703, 116.37820434570312, 45.15742111206055, -0.06400000303983688, 0.0, 1.040000081062317, 0.0, 0.0, 0.0, 0.0, 0.0, 1.62186043125365E9, 2021-05-24 14:47:11.253
24.0, -246.4650115966797, -100.9642105102539, 29.530250549316406, -19.483009338378906, -0.06400000303983688, 0.0, 1.040000081062317, 0.0, 0.0, 0.0, 0.0, 0.0, 1.62186043125365E9, 2021-05-24 14:47:11.253
25.0, -187.68875122070312, -82.42926788330078, 86.55250549316406, 10.230496406555176, -0.06400000303983688, 0.0, 1.040000081062317, 0.0, 0.0, 0.0, 0.0, 0.0, 1.6218604312672844E9, 2021-05-24 14:47:11.267
25.0, -111.95577239990234, -17.104433059692383, 161.41781616210938, 84.6619873046875, -0.06400000303983688, 0.0, 1.040000081062317, 0.0, 0.0, 0.0, 0.0, 0.0, 1.6218604312672844E9, 2021-05-24 14:47:11.267
26.0, -162.627685546875, -46.23451232910156, 105.68582916259766, 49.42090606689453, -0.06400000303983688, 0.0, 1.040000081062317, 0.0, 0.0, 0.0, 0.0, 0.0, 1.621860431282913E9, 2021-05-24 14:47:11.282
26.0, -245.58987426757812, -112.91693115234375, 29.04032325744629, -24.303739547729492, -0.06400000303983688, 0.0, 1.040000081062317, 0.0, 0.0, 0.0, 0.0, 0.0, 1.621860431282913E9, 2021-05-24 14:47:11.282
27.0, -185.7664337158203, -81.62144470214844, 89.05823516845703, 17.025894165039062, -0.06400000303983688, 0.0, 1.040000081062317, 0.0, 0.0, 0.0, 0.0, 0.0, 1.6218604312837553E9, 2021-05-24 14:47:11.283
27.0, -106.25242614746094, -16.128318786621094, 166.79954528808594, 83.71952819824219, -0.06400000303983688, 0.0, 1.040000081062317, 0.0, 0.0, 0.0, 0.0, 0.0, 1.6218604312837553E9, 2021-05-24 14:47:11.283
28.0, -157.04774475097656, -48.14560317993164, 110.22232818603516, 45.004085540771484, -0.06400000303983688, 0.0, 1.040000081062317, 0.0, 0.0, 0.0, 0.0, 0.0, 1.6218604312973893E9, 2021-05-24 14:47:11.297
28.0, -238.51773071289062, -108.51880645751953, 28.584054946899414, -20.649858474731445, -0.06400000303983688, 0.0, 1.040000081062317, 0.0, 0.0, 0.0, 0.0, 0.0, 1.6218604312973893E9, 2021-05-24 14:47:11.297
29.0, -188.50778198242188, -89.82678985595703, 88.03724670410156, 12.964363098144531, -0.06400000303983688, 0.0, 1.040000081062317, 0.0, 0.0, 0.0, 0.0, 0.0, 1.621860431312978E9, 2021-05-24 14:47:11.312
29.0, -103.51856231689453, -14.157391548156738, 169.43617248535156, 83.41659545898438, -0.06400000303983688, 0.0, 1.040000081062317, 0.0, 0.0, 0.0, 0.0, 0.0, 1.621860431312978E9, 2021-05-24 14:47:11.312
30.0, -162.029296875, -48.826263427734375, 107.6567611694336, 45.21352005004883, -0.06400000303983688, 0.0, 1.040000081062317, 0.0, 0.0, 0.0, 0.0, 0.0, 1.6218604313136883E9, 2021-05-24 14:47:11.313
30.0, -237.21250915527344, -106.4281997680664, 32.619407653808594, -15.503755569458008, -0.06400000303983688, 0.0, 1.040000081062317, 0.0, 0.0, 0.0, 0.0, 0.0, 1.6218604313136883E9, 2021-05-24 14:47:11.313
31.0, -179.8798370361328, -84.0411605834961, 80.94639587402344, 9.890165328979492, -0.06400000303983688, 0.0, 1.040000081062317, 0.0, 0.0, 0.0, 0.0, 0.0, 1.6218604313436108E9, 2021-05-24 14:47:11.343
31.0, -108.50384521484375, -13.338353157043457, 166.32083129882812, 81.47933197021484, -0.06400000303983688, 0.0, 1.040000081062317, 0.0, 0.0, 0.0, 0.0, 0.0, 1.6218604313436108E9, 2021-05-24 14:47:11.343
32.0, -160.2004852294922, -39.54383087158203, 113.6406021118164, 42.524532318115234, -0.06400000303983688, 0.0, 1.040000081062317, 0.0, 0.0, 0.0, 0.0, 0.0, 1.621860431344334E9, 2021-05-24 14:47:11.344
32.0, -242.57925415039062, -102.23577880859375, 35.54774856567383, -18.79486656188965, -0.06400000303983688, 0.0, 1.040000081062317, 0.0, 0.0, 0.0, 0.0, 0.0, 1.621860431344334E9, 2021-05-24 14:47:11.344
33.0, -190.6133575439453, -77.24950408935547, 88.99092102050781, 12.631511688232422, -0.06400000303983688, 0.0, 1.040000081062317, 0.0, 0.0, 0.0, 0.0, 0.0, 1.6218604313450987E9, 2021-05-24 14:47:11.345
33.0, -111.65283966064453, -13.345832824707031, 170.0420379638672, 80.84354400634766, -0.06400000303983688, 0.0, 1.040000081062317, 0.0, 0.0, 0.0, 0.0, 0.0, 1.6218604313450987E9, 2021-05-24 14:47:11.345
34.0, -170.61610412597656, -48.14186096191406, 109.71370697021484, 38.84073257446289, -0.06400000303983688, 0.0, 1.040000081062317, 0.0, 0.0, 0.0, 0.0, 0.0, 1.6218604313571756E9, 2021-05-24 14:47:11.357
34.0, -247.33641052246094, -104.97711944580078, 33.70023727416992, -19.93927574157715, -0.06400000303983688, 0.0, 1.040000081062317, 0.0, 0.0, 0.0, 0.0, 0.0, 1.6218604313571756E9, 2021-05-24 14:47:11.357
35.0, -181.63758850097656, -83.00894927978516, 95.35248565673828, 11.617999076843262, -0.06400000303983688, 0.0, 1.040000081062317, 0.0, 0.0, 0.0, 0.0, 0.0, 1.621860431372922E9, 2021-05-24 14:47:11.372
35.0, -116.0995864868164, -21.977521896362305, 169.95974731445312, 82.83317565917969, -0.06400000303983688, 0.0, 1.040000081062317, 0.0, 0.0, 0.0, 0.0, 0.0, 1.621860431372922E9, 2021-05-24 14:47:11.372
36.0, -161.02700805664062, -47.78657150268555, 116.26600646972656, 44.32716369628906, -0.06400000303983688, 0.0, 1.040000081062317, 0.0, 0.0, 0.0, 0.0, 0.0, 1.621860431373618E9, 2021-05-24 14:47:11.373
36.0, -243.32350158691406, -103.41758728027344, 41.3333740234375, -12.627772331237793, -0.06400000303983688, 0.0, 1.040000081062317, 0.0, 0.0, 0.0, 0.0, 0.0, 1.621860431373618E9, 2021-05-24 14:47:11.373
37.0, -183.75437927246094, -83.06130981445312, 92.04267883300781, 11.868572235107422, -0.06400000303983688, 0.0, 1.040000081062317, 0.0, 0.0, 0.0, 0.0, 0.0, 1.6218604313872805E9, 2021-05-24 14:47:11.387
37.0, -109.26678466796875, -18.129165649414062, 177.45077514648438, 85.54460144042969, -0.06400000303983688, 0.0, 1.040000081062317, 0.0, 0.0, 0.0, 0.0, 0.0, 1.6218604313872805E9, 2021-05-24 14:47:11.387
38.0, -166.93978881835938, -49.888397216796875, 122.1114730834961, 46.013858795166016, -0.06400000303983688, 0.0, 1.040000081062317, 0.0, 0.0, 0.0, 0.0, 0.0, 1.6218604314030073E9, 2021-05-24 14:47:11.403
38.0, -240.52606201171875, -103.49986267089844, 46.501914978027344, -20.070173263549805, -0.06400000303983688, 0.0, 1.040000081062317, 0.0, 0.0, 0.0, 0.0, 0.0, 1.6218604314030073E9, 2021-05-24 14:47:11.403
39.0, -181.76849365234375, -78.94367980957031, 100.65567016601562, 10.432451248168945, -0.06400000303983688, 0.0, 1.040000081062317, 0.0, 0.0, 0.0, 0.0, 0.0, 1.6218604314036975E9, 2021-05-24 14:47:11.403
39.0, -108.85540008544922, -20.59001922607422, 167.71206665039062, 79.44482421875, -0.06400000303983688, 0.0, 1.040000081062317, 0.0, 0.0, 0.0, 0.0, 0.0, 1.6218604314036975E9, 2021-05-24 14:47:11.403
40.0, -152.1896209716797, -52.21461486816406, 117.27204132080078, 43.635284423828125, -0.06400000303983688, 0.0, 1.055999994277954, 0.0, 0.0, 0.0, 0.0, 0.0, 1.6218604314172845E9, 2021-05-24 14:47:11.417
40.0, -244.7371826171875, -110.62437438964844, 28.329742431640625, -21.453935623168945, -0.06400000303983688, 0.0, 1.055999994277954, 0.0, 0.0, 0.0, 0.0, 0.0, 1.6218604314172845E9, 2021-05-24 14:47:11.417
41.0, -187.23995971679688, -91.03103637695312, 80.16101837158203, 15.391558647155762, -0.06400000303983688, 0.01600000075995922, 1.055999994277954, 0.0, 0.0, 0.0, 0.0, 0.0, 1.6218604314330366E9, 2021-05-24 14:47:11.433
41.0, -100.219970703125, -17.403623580932617, 166.02163696289062, 82.13007354736328, -0.06400000303983688, 0.01600000075995922, 1.055999994277954, 0.0, 0.0, 0.0, 0.0, 0.0, 1.6218604314330366E9, 2021-05-24 14:47:11.433
42.0, -162.09288024902344, -52.53250503540039, 111.75569152832031, 42.730228424072266, -0.06400000303983688, 0.01600000075995922, 1.055999994277954, 0.0, 0.0, 0.0, 0.0, 0.0, 1.6218604314336555E9, 2021-05-24 14:47:11.433
42.0, -237.38079833984375, -104.98834228515625, 47.26859664916992, -20.687255859375, -0.06400000303983688, 0.01600000075995922, 1.055999994277954, 0.0, 0.0, 0.0, 0.0, 0.0, 1.6218604314336555E9, 2021-05-24 14:47:11.433
43.0, -188.6125030517578, -84.41889190673828, 89.53694152832031, 15.784247398376465, -0.06400000303983688, 0.01600000075995922, 1.055999994277954, 0.0, 0.0, 0.0, 0.0, 0.0, 1.6218604314472823E9, 2021-05-24 14:47:11.447
43.0, -107.26593780517578, -14.737075805664062, 171.5716552734375, 82.01787567138672, -0.06400000303983688, 0.01600000075995922, 1.055999994277954, 0.0, 0.0, 0.0, 0.0, 0.0, 1.6218604314472823E9, 2021-05-24 14:47:11.447
44.0, -167.13426208496094, -50.9692268371582, 110.55892181396484, 42.07200622558594, -0.06400000303983688, 0.01600000075995922, 1.055999994277954, 0.0, 0.0, 0.0, 0.0, 0.0, 1.621860431462918E9, 2021-05-24 14:47:11.462
44.0, -244.9915008544922, -106.48804473876953, 36.26955032348633, -18.40591812133789, -0.06400000303983688, 0.01600000075995922, 1.055999994277954, 0.0, 0.0, 0.0, 0.0, 0.0, 1.621860431462918E9, 2021-05-24 14:47:11.462
45.0, -187.5503692626953, -76.58380126953125, 89.14051818847656, 13.454290390014648, -0.06400000303983688, 0.01600000075995922, 1.055999994277954, 0.0, 0.0, 0.0, 0.0, 0.0, 1.62186043146365E9, 2021-05-24 14:47:11.463
45.0, -109.4388198852539, -13.405671119689941, 164.3536376953125, 82.36194610595703, -0.06400000303983688, 0.01600000075995922, 1.055999994277954, 0.0, 0.0, 0.0, 0.0, 0.0, 1.62186043146365E9, 2021-05-24 14:47:11.463
46.0, -169.07901000976562, -49.024478912353516, 118.04620361328125, 46.52622604370117, -0.06400000303983688, 0.01600000075995922, 1.055999994277954, 0.0, 0.0, 0.0, 0.0, 0.0, 1.6218604314772804E9, 2021-05-24 14:47:11.477
46.0, -246.9474639892578, -101.81316375732422, 38.640647888183594, -16.592065811157227, -0.06400000303983688, 0.01600000075995922, 1.055999994277954, 0.0, 0.0, 0.0, 0.0, 0.0, 1.6218604314772804E9, 2021-05-24 14:47:11.477
47.0, -186.76873779296875, -85.30524444580078, 94.62694549560547, 16.939876556396484, -0.06400000303983688, 0.01600000075995922, 1.055999994277954, 0.0, 0.0, 0.0, 0.0, 0.0, 1.6218604314929037E9, 2021-05-24 14:47:11.492
47.0, -113.74344635009766, -16.902477264404297, 172.09523010253906, 82.12259674072266, -0.06400000303983688, 0.01600000075995922, 1.055999994277954, 0.0, 0.0, 0.0, 0.0, 0.0, 1.6218604314929037E9, 2021-05-24 14:47:11.492
48.0, -161.4271697998047, -54.7839241027832, 119.34394836425781, 51.46663284301758, -0.06400000303983688, 0.01600000075995922, 1.055999994277954, 0.0, 0.0, 0.0, 0.0, 0.0, 1.621860431493636E9, 2021-05-24 14:47:11.493
48.0, -243.334716796875, -106.37584686279297, 39.459686279296875, -7.825740814208984, -0.06400000303983688, 0.01600000075995922, 1.055999994277954, 0.0, 0.0, 0.0, 0.0, 0.0, 1.621860431493636E9, 2021-05-24 14:47:11.493
49.0, -191.6567840576172, -86.15794372558594, 87.244384765625, 11.767595291137695, -0.06400000303983688, 0.01600000075995922, 1.055999994277954, 0.0, 0.0, 0.0, 0.0, 0.0, 1.621860431540156E9, 2021-05-24 14:47:11.540
49.0, -122.4050521850586, -18.862184524536133, 159.8695068359375, 81.228759765625, -0.06400000303983688, 0.01600000075995922, 1.055999994277954, 0.0, 0.0, 0.0, 0.0, 0.0, 1.621860431540156E9, 2021-05-24 14:47:11.540
50.0, -164.87161254882812, -39.992618560791016, 120.01338958740234, 45.87922286987305, -0.06400000303983688, 0.01600000075995922, 1.055999994277954, 0.0, 0.0, 0.0, 0.0, 0.0, 1.6218604315408225E9, 2021-05-24 14:47:11.540
50.0, -252.2469024658203, -98.3350601196289, 34.848388671875, -18.402177810668945, -0.06400000303983688, 0.01600000075995922, 1.055999994277954, 0.0, 0.0, 0.0, 0.0, 0.0, 1.6218604315408225E9, 2021-05-24 14:47:11.540
51.0, -194.81700134277344, -75.15889739990234, 88.0260238647461, 12.070527076721191, -0.06400000303983688, 0.0, 1.055999994277954, 0.0, 0.0, 0.0, 0.0, 0.0, 1.62186043154155E9, 2021-05-24 14:47:11.541
51.0, -119.67118835449219, -18.03192710876465, 161.14854431152344, 76.49030303955078, -0.06400000303983688, 0.0, 1.055999994277954, 0.0, 0.0, 0.0, 0.0, 0.0, 1.62186043154155E9, 2021-05-24 14:47:11.541
52.0, -166.49099731445312, -49.25261306762695, 109.95680236816406, 46.38410949707031, -0.08000000566244125, 0.0, 1.055999994277954, 0.0, 0.0, 0.0, 0.0, 0.0, 1.6218604315423036E9, 2021-05-24 14:47:11.542
52.0, -248.252685546875, -102.37789154052734, 36.74825668334961, -15.945063591003418, -0.08000000566244125, 0.0, 1.055999994277954, 0.0, 0.0, 0.0, 0.0, 0.0, 1.6218604315423036E9, 2021-05-24 14:47:11.542
53.0, -186.9557342529297, -84.97613525390625, 87.73431396484375, 18.480714797973633, -0.08000000566244125, 0.0, 1.055999994277954, 0.0, 0.0, 0.0, 0.0, 0.0, 1.621860431552918E9, 2021-05-24 14:47:11.552
53.0, -121.5635757446289, -26.00913429260254, 166.00668334960938, 85.95599365234375, -0.08000000566244125, 0.0, 1.055999994277954, 0.0, 0.0, 0.0, 0.0, 0.0, 1.621860431552918E9, 2021-05-24 14:47:11.552
54.0, -166.55831909179688, -55.35987091064453, 115.2076187133789, 51.115081787109375, -0.08000000566244125, 0.0, 1.055999994277954, 0.0, 0.0, 0.0, 0.0, 0.0, 1.621860431553612E9, 2021-05-24 14:47:11.553
54.0, -244.20611572265625, -108.66466522216797, 40.75743103027344, -4.6505656242370605, -0.08000000566244125, 0.0, 1.055999994277954, 0.0, 0.0, 0.0, 0.0, 0.0, 1.621860431553612E9, 2021-05-24 14:47:11.553
55.0, -191.23043823242188, -79.83003234863281, 92.41292572021484, 24.038206100463867, -0.08000000566244125, 0.0, 1.055999994277954, 0.0, 0.0, 0.0, 0.0, 0.0, 1.6218604315673013E9, 2021-05-24 14:47:11.567
55.0, -110.52713012695312, -16.345232009887695, 167.5400390625, 90.99737548828125, -0.08000000566244125, 0.0, 1.055999994277954, 0.0, 0.0, 0.0, 0.0, 0.0, 1.6218604315673013E9, 2021-05-24 14:47:11.567
56.0, -160.86993408203125, -41.9373664855957, 121.5691909790039, 42.913482666015625, -0.08000000566244125, 0.0, 1.055999994277954, 0.0, 0.0, 0.0, 0.0, 0.0, 1.6218604315983446E9, 2021-05-24 14:47:11.598
56.0, -240.3614959716797, -107.0677261352539, 36.348087310791016, -22.777860641479492, -0.08000000566244125, 0.0, 1.055999994277954, 0.0, 0.0, 0.0, 0.0, 0.0, 1.6218604315983446E9, 2021-05-24 14:47:11.598
57.0, -180.0369110107422, -76.7109603881836, 91.78836822509766, 11.801254272460938, -0.08000000566244125, 0.0, 1.055999994277954, 0.0, 0.0, 0.0, 0.0, 0.0, 1.6218604315991888E9, 2021-05-24 14:47:11.599
57.0, -104.41239929199219, -11.531981468200684, 159.4730682373047, 79.0446548461914, -0.08000000566244125, 0.0, 1.055999994277954, 0.0, 0.0, 0.0, 0.0, 0.0, 1.6218604315991888E9, 2021-05-24 14:47:11.599
58.0, -163.4990692138672, -47.94364929199219, 112.63456726074219, 33.556251525878906, -0.08000000566244125, 0.0, 1.055999994277954, 0.0, 0.0, 0.0, 0.0, 0.0, 1.6218604316136932E9, 2021-05-24 14:47:11.613
58.0, -240.716796875, -101.20355987548828, 36.123695373535156, -19.744802474975586, -0.08000000566244125, 0.0, 1.055999994277954, 0.0, 0.0, 0.0, 0.0, 0.0, 1.6218604316136932E9, 2021-05-24 14:47:11.613
59.0, -180.7175750732422, -77.82170867919922, 88.54961395263672, 14.359345436096191, -0.08000000566244125, 0.0, 1.055999994277954, 0.0, 0.0, 0.0, 0.0, 0.0, 1.6218604316144736E9, 2021-05-24 14:47:11.614
59.0, -112.88700866699219, -16.49856948852539, 167.0201873779297, 76.7558364868164, -0.08000000566244125, 0.0, 1.055999994277954, 0.0, 0.0, 0.0, 0.0, 0.0, 1.6218604316144736E9, 2021-05-24 14:47:11.614
60.0, -163.802001953125, -47.65193557739258, 110.89925384521484, 48.89732360839844, -0.08000000566244125, 0.0, 1.040000081062317, 0.0, 0.0, 0.0, 0.0, 0.0, 1.6218604316150608E9, 2021-05-24 14:47:11.615
60.0, -247.93479919433594, -105.302490234375, 42.61989974975586, -13.012982368469238, -0.08000000566244125, 0.0, 1.040000081062317, 0.0, 0.0, 0.0, 0.0, 0.0, 1.6218604316150608E9, 2021-05-24 14:47:11.615
61.0, -187.3858184814453, -79.64303588867188, 92.6447982788086, 20.148710250854492, -0.08000000566244125, 0.0, 1.040000081062317, 0.0, 0.0, 0.0, 0.0, 0.0, 1.621860431627205E9, 2021-05-24 14:47:11.627
61.0, -114.6971206665039, -18.41339683532715, 168.5984344482422, 82.56764221191406, -0.08000000566244125, 0.0, 1.040000081062317, 0.0, 0.0, 0.0, 0.0, 0.0, 1.621860431627205E9, 2021-05-24 14:47:11.627
62.0, -166.44985961914062, -42.84616470336914, 114.65037536621094, 42.763885498046875, -0.08000000566244125, 0.0, 1.040000081062317, 0.0, 0.0, 0.0, 0.0, 0.0, 1.621860431659276E9, 2021-05-24 14:47:11.659
62.0, -252.7630157470703, -101.9291000366211, 39.90847396850586, -19.625125885009766, -0.08000000566244125, 0.0, 1.040000081062317, 0.0, 0.0, 0.0, 0.0, 0.0, 1.621860431659276E9, 2021-05-24 14:47:11.659
63.0, -187.2436981201172, -79.3401107788086, 91.09274291992188, 18.693889617919922, -0.08000000566244125, 0.0, 1.040000081062317, 0.0, 0.0, 0.0, 0.0, 0.0, 1.6218604316600103E9, 2021-05-24 14:47:11.660
63.0, -119.4916763305664, -12.422078132629395, 166.53025817871094, 80.49199676513672, -0.08000000566244125, 0.0, 1.040000081062317, 0.0, 0.0, 0.0, 0.0, 0.0, 1.6218604316600103E9, 2021-05-24 14:47:11.660
64.0, -165.78041076660156, -49.413429260253906, 117.24586486816406, 44.5253791809082, -0.08000000566244125, 0.0, 1.040000081062317, 0.0, 0.0, 0.0, 0.0, 0.0, 1.621860431660808E9, 2021-05-24 14:47:11.660
64.0, -250.22361755371094, -99.84223937988281, 37.301761627197266, -19.737321853637695, -0.08000000566244125, 0.0, 1.040000081062317, 0.0, 0.0, 0.0, 0.0, 0.0, 1.621860431660808E9, 2021-05-24 14:47:11.660
65.0, -181.50669860839844, -73.52456665039062, 100.46867370605469, 17.75517463684082, -0.08000000566244125, 0.0, 1.040000081062317, 0.0, 0.0, 0.0, 0.0, 0.0, 1.621860431661553E9, 2021-05-24 14:47:11.661
65.0, -114.54378509521484, -11.558160781860352, 170.9770050048828, 79.66548156738281, -0.08000000566244125, 0.0, 1.040000081062317, 0.0, 0.0, 0.0, 0.0, 0.0, 1.621860431661553E9, 2021-05-24 14:47:11.661
66.0, -171.53985595703125, -44.08781051635742, 121.99927520751953, 37.894535064697266, -0.08000000566244125, 0.0, 1.040000081062317, 0.0, 0.0, 0.0, 0.0, 0.0, 1.6218604316723099E9, 2021-05-24 14:47:11.672
66.0, -244.89425659179688, -96.71194458007812, 36.912811279296875, -22.168256759643555, -0.08000000566244125, 0.0, 1.040000081062317, 0.0, 0.0, 0.0, 0.0, 0.0, 1.6218604316723099E9, 2021-05-24 14:47:11.672
67.0, -178.3053436279297, -67.84739685058594, 92.32691192626953, 15.081146240234375, -0.08000000566244125, 0.0, 1.040000081062317, 0.0, 0.0, 0.0, 0.0, 0.0, 1.6218604316873147E9, 2021-05-24 14:47:11.687
67.0, -106.663818359375, -11.266448974609375, 171.859619140625, 79.19425201416016, -0.08000000566244125, 0.0, 1.040000081062317, 0.0, 0.0, 0.0, 0.0, 0.0, 1.6218604316873147E9, 2021-05-24 14:47:11.687
68.0, -164.9090118408203, -41.98598861694336, 123.60369110107422, 41.82143020629883, -0.08000000566244125, 0.0, 1.040000081062317, 0.0, 0.0, 0.0, 0.0, 0.0, 1.621860431703002E9, 2021-05-24 14:47:11.703
68.0, -243.7124481201172, -98.73149108886719, 46.191505432128906, -15.350419044494629, -0.08000000566244125, 0.0, 1.040000081062317, 0.0, 0.0, 0.0, 0.0, 0.0, 1.621860431703002E9, 2021-05-24 14:47:11.703
69.0, -188.5638885498047, -68.89456939697266, 101.22787475585938, 22.60208511352539, -0.08000000566244125, 0.0, 1.040000081062317, 0.0, 0.0, 0.0, 0.0, 0.0, 1.6218604317037127E9, 2021-05-24 14:47:11.703
69.0, -112.98424530029297, -17.321346282958984, 180.0425262451172, 82.11885070800781, -0.08000000566244125, 0.0, 1.040000081062317, 0.0, 0.0, 0.0, 0.0, 0.0, 1.6218604317037127E9, 2021-05-24 14:47:11.703
70.0, -161.4346466064453, -45.21352005004883, 120.38363647460938, 46.298091888427734, -0.08000000566244125, 0.0, 1.040000081062317, 0.0, 0.0, 0.0, 0.0, 0.0, 1.6218604317174134E9, 2021-05-24 14:47:11.717
70.0, -243.24496459960938, -104.32637786865234, 42.03273391723633, -13.35705280303955, -0.08000000566244125, 0.0, 1.040000081062317, 0.0, 0.0, 0.0, 0.0, 0.0, 1.6218604317174134E9, 2021-05-24 14:47:11.717
71.0, -186.0244903564453, -78.57342529296875, 97.64505004882812, 25.788480758666992, -0.08000000566244125, 0.0, 1.040000081062317, 0.0, 0.0, 0.0, 0.0, 0.0, 1.6218604317329593E9, 2021-05-24 14:47:11.732
71.0, -110.4373779296875, -12.15654468536377, 169.9485321044922, 89.23588562011719, -0.08000000566244125, 0.0, 1.040000081062317, 0.0, 0.0, 0.0, 0.0, 0.0, 1.6218604317329593E9, 2021-05-24 14:47:11.732
72.0, -166.88742065429688, -46.488826751708984, 116.57642364501953, 48.927242279052734, -0.08000000566244125, 0.0, 1.040000081062317, 0.0, 0.0, 0.0, 0.0, 0.0, 1.621860431733643E9, 2021-05-24 14:47:11.733
72.0, -246.33038330078125, -103.46620178222656, 40.016929626464844, -12.998022079467773, -0.08000000566244125, 0.0, 1.040000081062317, 0.0, 0.0, 0.0, 0.0, 0.0, 1.621860431733643E9, 2021-05-24 14:47:11.733
73.0, -177.43394470214844, -77.08494567871094, 98.01529693603516, 19.778461456298828, -0.08000000566244125, 0.0, 1.040000081062317, 0.0, 0.0, 0.0, 0.0, 0.0, 1.6218604317474196E9, 2021-05-24 14:47:11.747
73.0, -108.9114990234375, -15.372859001159668, 169.1070556640625, 84.94247436523438, -0.08000000566244125, 0.0, 1.040000081062317, 0.0, 0.0, 0.0, 0.0, 0.0, 1.6218604317474196E9, 2021-05-24 14:47:11.747
74.0, -165.89634704589844, -42.93592071533203, 120.19664764404297, 48.56821060180664, -0.08000000566244125, 0.0, 1.040000081062317, 0.0, 0.0, 0.0, 0.0, 0.0, 1.6218604317793581E9, 2021-05-24 14:47:11.779
74.0, -244.50904846191406, -101.93658447265625, 47.29851531982422, -16.233036041259766, -0.08000000566244125, 0.0, 1.040000081062317, 0.0, 0.0, 0.0, 0.0, 0.0, 1.6218604317793581E9, 2021-05-24 14:47:11.779
75.0, -177.89768981933594, -69.63880920410156, 101.39616394042969, 17.927209854125977, -0.08000000566244125, 0.0, 1.040000081062317, 0.0, 0.0, 0.0, 0.0, 0.0, 1.621860431780007E9, 2021-05-24 14:47:11.780
75.0, -114.62232208251953, -13.68242359161377, 168.40769958496094, 88.4542465209961, -0.08000000566244125, 0.0, 1.040000081062317, 0.0, 0.0, 0.0, 0.0, 0.0, 1.621860431780007E9, 2021-05-24 14:47:11.780
76.0, -175.1189422607422, -42.06452560424805, 120.9259262084961, 49.364810943603516, -0.08000000566244125, 0.0, 1.040000081062317, 0.0, 0.0, 0.0, 0.0, 0.0, 1.6218604317808144E9, 2021-05-24 14:47:11.780
76.0, -248.66033935546875, -99.08303833007812, 36.011497497558594, -13.899337768554688, -0.08000000566244125, 0.0, 1.040000081062317, 0.0, 0.0, 0.0, 0.0, 0.0, 1.6218604317808144E9, 2021-05-24 14:47:11.780
77.0, -186.9033660888672, -72.60828399658203, 95.58061981201172, 28.627063751220703, -0.08000000566244125, 0.0, 1.040000081062317, 0.0, 0.0, 0.0, 0.0, 0.0, 1.6218604317817144E9, 2021-05-24 14:47:11.781
77.0, -109.86517333984375, -0.37212005257606506, 166.0515594482422, 88.02789306640625, -0.08000000566244125, 0.0, 1.040000081062317, 0.0, 0.0, 0.0, 0.0, 0.0, 1.6218604317817144E9, 2021-05-24 14:47:11.781
78.0, -172.90866088867188, -34.53610610961914, 113.74531555175781, 48.3400764465332, -0.08000000566244125, 0.0, 1.040000081062317, 0.0, 0.0, 0.0, 0.0, 0.0, 1.621860431792205E9, 2021-05-24 14:47:11.792
78.0, -253.03976440429688, -92.05577087402344, 37.74306869506836, -11.318807601928711, -0.08000000566244125, 0.0, 1.040000081062317, 0.0, 0.0, 0.0, 0.0, 0.0, 1.621860431792205E9, 2021-05-24 14:47:11.792
79.0, -188.9042205810547, -67.48836517333984, 89.01709747314453, 17.029634475708008, -0.08000000566244125, 0.0, 1.040000081062317, 0.0, 0.0, 0.0, 0.0, 0.0, 1.621860431807292E9, 2021-05-24 14:47:11.807
79.0, -115.14591217041016, -9.912605285644531, 167.69337463378906, 84.29547882080078, -0.08000000566244125, 0.0, 1.040000081062317, 0.0, 0.0, 0.0, 0.0, 0.0, 1.621860431807292E9, 2021-05-24 14:47:11.807
80.0, -169.51283264160156, -40.897674560546875, 112.8365249633789, 43.25007247924805, -0.08000000566244125, 0.0, 1.055999994277954, 0.0, 0.0, 0.0, 0.0, 0.0, 1.621860431822903E9, 2021-05-24 14:47:11.822
80.0, -259.7828063964844, -94.43060302734375, 27.574281692504883, -16.861339569091797, -0.08000000566244125, 0.0, 1.055999994277954, 0.0, 0.0, 0.0, 0.0, 0.0, 1.621860431822903E9, 2021-05-24 14:47:11.822
81.0, -194.40560913085938, -75.42443084716797, 91.91551971435547, 20.803194046020508, -0.08000000566244125, 0.0, 1.055999994277954, 0.0, 0.0, 0.0, 0.0, 0.0, 1.62186043182362E9, 2021-05-24 14:47:11.823
81.0, -121.80293273925781, -10.114559173583984, 169.1107940673828, 82.15251159667969, -0.08000000566244125, 0.0, 1.055999994277954, 0.0, 0.0, 0.0, 0.0, 0.0, 1.62186043182362E9, 2021-05-24 14:47:11.823
82.0, -174.9955291748047, -45.92036056518555, 113.79767608642578, 43.75495910644531, -0.08000000566244125, 0.0, 1.055999994277954, 0.0, 0.0, 0.0, 0.0, 0.0, 1.6218604318372085E9, 2021-05-24 14:47:11.837
82.0, -251.17355346679688, -104.08328247070312, 34.059268951416016, -19.770980834960938, -0.08000000566244125, 0.0, 1.055999994277954, 0.0, 0.0, 0.0, 0.0, 0.0, 1.6218604318372085E9, 2021-05-24 14:47:11.837
83.0, -193.6538848876953, -73.39740753173828, 98.9053955078125, 28.74300193786621, -0.08000000566244125, 0.0, 1.055999994277954, 0.0, 0.0, 0.0, 0.0, 0.0, 1.621860431852999E9, 2021-05-24 14:47:11.852
83.0, -117.73391723632812, -8.046394348144531, 171.66514587402344, 94.50540161132812, -0.08000000566244125, 0.0, 1.055999994277954, 0.0, 0.0, 0.0, 0.0, 0.0, 1.621860431852999E9, 2021-05-24 14:47:11.852
84.0, -175.82205200195312, -38.814552307128906, 120.18168640136719, 51.24597930908203, -0.08000000566244125, 0.0, 1.055999994277954, 0.0, 0.0, 0.0, 0.0, 0.0, 1.6218604318536656E9, 2021-05-24 14:47:11.853
84.0, -258.4588623046875, -88.9217300415039, 47.377052307128906, -15.623432159423828, -0.08000000566244125, 0.0, 1.055999994277954, 0.0, 0.0, 0.0, 0.0, 0.0, 1.6218604318536656E9, 2021-05-24 14:47:11.853
85.0, -195.68466186523438, -71.7967300415039, 94.38011169433594, 21.988740921020508, -0.08000000566244125, 0.0, 1.055999994277954, 0.0, 0.0, 0.0, 0.0, 0.0, 1.6218604318672547E9, 2021-05-24 14:47:11.867
85.0, -123.24653625488281, -6.849626541137695, 170.5955352783203, 91.43120574951172, -0.08000000566244125, 0.0, 1.055999994277954, 0.0, 0.0, 0.0, 0.0, 0.0, 1.6218604318672547E9, 2021-05-24 14:47:11.867
86.0, -174.9955291748047, -42.79006576538086, 121.19893646240234, 53.77415084838867, -0.08000000566244125, 0.0, 1.055999994277954, 0.0, 0.0, 0.0, 0.0, 0.0, 1.6218604318829048E9, 2021-05-24 14:47:11.882
86.0, -251.2595672607422, -99.31117248535156, 33.62543869018555, -11.344986915588379, -0.08000000566244125, 0.0, 1.055999994277954, 0.0, 0.0, 0.0, 0.0, 0.0, 1.6218604318829048E9, 2021-05-24 14:47:11.882
87.0, -195.4303436279297, -70.75703430175781, 94.46613311767578, 24.2439022064209, -0.08000000566244125, 0.0, 1.055999994277954, 0.0, 0.0, 0.0, 0.0, 0.0, 1.6218604318837E9, 2021-05-24 14:47:11.883
87.0, -117.53196716308594, -7.21239709854126, 173.7407989501953, 95.53761291503906, -0.08000000566244125, 0.0, 1.055999994277954, 0.0, 0.0, 0.0, 0.0, 0.0, 1.6218604318837E9, 2021-05-24 14:47:11.883
88.0, -171.79791259765625, -42.517051696777344, 119.61695861816406, 57.319576263427734, -0.08000000566244125, 0.0, 1.055999994277954, 0.0, 0.0, 0.0, 0.0, 0.0, 1.6218604318972287E9, 2021-05-24 14:47:11.897
88.0, -249.77108764648438, -98.70905303955078, 36.99882888793945, -11.023355484008789, -0.08000000566244125, 0.0, 1.055999994277954, 0.0, 0.0, 0.0, 0.0, 0.0, 1.6218604318972287E9, 2021-05-24 14:47:11.897
89.0, -185.11195373535156, -77.20088195800781, 94.95231628417969, 22.67314338684082, -0.08000000566244125, 0.0, 1.055999994277954, 0.0, 0.0, 0.0, 0.0, 0.0, 1.6218604319130669E9, 2021-05-24 14:47:11.913
89.0, -110.10452270507812, -14.082592964172363, 175.01983642578125, 88.14382934570312, -0.08000000566244125, 0.0, 1.055999994277954, 0.0, 0.0, 0.0, 0.0, 0.0, 1.6218604319130669E9, 2021-05-24 14:47:11.913
90.0, -165.39520263671875, -39.910343170166016, 121.44203186035156, 48.74398422241211, -0.08000000566244125, 0.0, 1.055999994277954, 0.0, 0.0, 0.0, 0.0, 0.0, 1.6218604319137464E9, 2021-05-24 14:47:11.913
90.0, -246.88388061523438, -102.67333984375, 37.387779235839844, -20.4815616607666, -0.08000000566244125, 0.0, 1.055999994277954, 0.0, 0.0, 0.0, 0.0, 0.0, 1.6218604319137464E9, 2021-05-24 14:47:11.913
91.0, -180.0780487060547, -72.58210754394531, 99.66459655761719, 23.383724212646484, -0.08000000566244125, 0.0, 1.055999994277954, 0.0, 0.0, 0.0, 0.0, 0.0, 1.6218604319272785E9, 2021-05-24 14:47:11.927
91.0, -109.30792236328125, -18.458276748657227, 169.95974731445312, 77.62349700927734, -0.08000000566244125, 0.0, 1.055999994277954, 0.0, 0.0, 0.0, 0.0, 0.0, 1.6218604319272785E9, 2021-05-24 14:47:11.927
92.0, -163.94786071777344, -47.89876937866211, 119.03353881835938, 43.40715026855469, -0.08000000566244125, 0.0, 1.055999994277954, 0.0, 0.0, 0.0, 0.0, 0.0, 1.6218604319434257E9, 2021-05-24 14:47:11.943
92.0, -243.82090759277344, -97.37390899658203, 35.932960510253906, -18.675189971923828, -0.08000000566244125, 0.0, 1.055999994277954, 0.0, 0.0, 0.0, 0.0, 0.0, 1.6218604319434257E9, 2021-05-24 14:47:11.943
93.0, -188.062744140625, -78.08724212646484, 96.12290954589844, 16.61824607849121, -0.08000000566244125, 0.0, 1.055999994277954, 0.0, 0.0, 0.0, 0.0, 0.0, 1.6218604319579132E9, 2021-05-24 14:47:11.957
93.0, -118.52677917480469, -18.058107376098633, 172.6786651611328, 79.8075942993164, -0.08000000566244125, 0.0, 1.055999994277954, 0.0, 0.0, 0.0, 0.0, 0.0, 1.6218604319579132E9, 2021-05-24 14:47:11.957
94.0, -171.33790588378906, -52.42030715942383, 119.74785614013672, 41.74663162231445, -0.08000000566244125, 0.0, 1.055999994277954, 0.0, 0.0, 0.0, 0.0, 0.0, 1.6218604319586413E9, 2021-05-24 14:47:11.958
94.0, -252.84902954101562, -106.77601623535156, 43.88398742675781, -16.176937103271484, -0.08000000566244125, 0.0, 1.055999994277954, 0.0, 0.0, 0.0, 0.0, 0.0, 1.6218604319586413E9, 2021-05-24 14:47:11.958
95.0, -189.42031860351562, -66.8376235961914, 105.76437377929688, 18.749988555908203, -0.08000000566244125, 0.0, 1.055999994277954, 0.0, 0.0, 0.0, 0.0, 0.0, 1.6218604319729981E9, 2021-05-24 14:47:11.972
95.0, -115.64331817626953, -11.969550132751465, 175.4312286376953, 77.48885345458984, -0.08000000566244125, 0.0, 1.055999994277954, 0.0, 0.0, 0.0, 0.0, 0.0, 1.6218604319729981E9, 2021-05-24 14:47:11.972
96.0, -167.89346313476562, -49.27131271362305, 116.74472045898438, 49.28253173828125, -0.08000000566244125, 0.0, 1.055999994277954, 0.0, 0.0, 0.0, 0.0, 0.0, 1.6218604319737806E9, 2021-05-24 14:47:11.973
96.0, -242.05194091796875, -97.77781677246094, 41.120201110839844, -17.265247344970703, -0.08000000566244125, 0.0, 1.055999994277954, 0.0, 0.0, 0.0, 0.0, 0.0, 1.6218604319737806E9, 2021-05-24 14:47:11.973
97.0, -181.80213928222656, -70.16239166259766, 102.58171844482422, 22.777860641479492, -0.08000000566244125, 0.0, 1.055999994277954, 0.0, 0.0, 0.0, 0.0, 0.0, 1.6218604319872215E9, 2021-05-24 14:47:11.987
97.0, -112.27740478515625, -10.877498626708984, 174.81040954589844, 83.99628448486328, -0.08000000566244125, 0.0, 1.055999994277954, 0.0, 0.0, 0.0, 0.0, 0.0, 1.6218604319872215E9, 2021-05-24 14:47:11.987
98.0, -168.02061462402344, -48.01096725463867, 120.48088073730469, 46.26443099975586, -0.08000000566244125, 0.0, 1.055999994277954, 0.0, 0.0, 0.0, 0.0, 0.0, 1.6218604320194144E9, 2021-05-24 14:47:12.019
98.0, -245.19345092773438, -102.8079833984375, 45.58563995361328, -17.590620040893555, -0.08000000566244125, 0.0, 1.055999994277954, 0.0, 0.0, 0.0, 0.0, 0.0, 1.6218604320194144E9, 2021-05-24 14:47:12.019
99.0, -181.5777587890625, -74.75872802734375, 102.16658782958984, 21.143524169921875, -0.08000000566244125, 0.0, 1.055999994277954, 0.0, 0.0, 0.0, 0.0, 0.0, 1.6218604320201235E9, 2021-05-24 14:47:12.020
99.0, -114.24459075927734, -4.4860100746154785, 179.05892944335938, 82.45918273925781, -0.08000000566244125, 0.0, 1.055999994277954, 0.0, 0.0, 0.0, 0.0, 0.0, 1.6218604320201235E9, 2021-05-24 14:47:12.020
100.0, -168.42453002929688, -38.93048858642578, 118.21075439453125, 45.830604553222656, -0.08000000566244125, 0.0, 1.055999994277954, 0.0, 0.0, 0.0, 0.0, 0.0, 1.6218604320208821E9, 2021-05-24 14:47:12.020
100.0, -249.84214782714844, -109.13214874267578, 37.8702278137207, -18.368518829345703, -0.08000000566244125, 0.0, 1.055999994277954, 0.0, 0.0, 0.0, 0.0, 0.0, 1.6218604320208821E9, 2021-05-24 14:47:12.020
0.0, -180.0369110107422, -72.39137268066406, 98.43229675292969, 24.189672470092773, -0.08000000566244125, 0.0, 1.055999994277954, 0.0, 0.0, 0.0, 0.0, 0.0, 1.6218604320215728E9, 2021-05-24 14:47:12.021
1.0, -107.76334381103516, -15.058707237243652, 168.7573699951172, 86.28323364257812, -0.08000000566244125, 0.0, 1.055999994277954, 0.0, 0.0, 0.0, 0.0, 0.0, 1.6218604320322375E9, 2021-05-24 14:47:12.032
1.0, -170.32064819335938, -47.75665283203125, 113.08148193359375, 49.87904739379883, -0.08000000566244125, 0.0, 1.055999994277954, 0.0, 0.0, 0.0, 0.0, 0.0, 1.6218604320322375E9, 2021-05-24 14:47:12.032
2.0, -241.22915649414062, -104.88736724853516, 37.090457916259766, -12.659561157226562, -0.08000000566244125, 0.0, 1.055999994277954, 0.0, 0.0, 0.0, 0.0, 0.0, 1.6218604320480912E9, 2021-05-24 14:47:12.048
2.0, -181.30848693847656, -79.03717803955078, 104.06832885742188, 15.580423355102539, -0.08000000566244125, 0.0, 1.055999994277954, 0.0, 0.0, 0.0, 0.0, 0.0, 1.6218604320480912E9, 2021-05-24 14:47:12.048
3.0, -110.2017593383789, -21.248241424560547, 174.26998901367188, 80.22833251953125, -0.08000000566244125, 0.0, 1.055999994277954, 0.0, 0.0, 0.0, 0.0, 0.0, 1.6218604320486689E9, 2021-05-24 14:47:12.048
3.0, -160.39122009277344, -51.212318420410156, 121.3578872680664, 46.77119064331055, -0.08000000566244125, 0.0, 1.055999994277954, 0.0, 0.0, 0.0, 0.0, 0.0, 1.6218604320486689E9, 2021-05-24 14:47:12.048
4.0, -243.1327667236328, -105.08184051513672, 39.12122344970703, -19.368942260742188, -0.08000000566244125, 0.0, 1.055999994277954, 0.0, 0.0, 0.0, 0.0, 0.0, 1.6218604320954087E9, 2021-05-24 14:47:12.095
4.0, -175.9342498779297, -74.65027618408203, 96.22575378417969, 20.34131622314453, -0.08000000566244125, 0.0, 1.055999994277954, 0.0, 0.0, 0.0, 0.0, 0.0, 1.6218604320954087E9, 2021-05-24 14:47:12.095
5.0, -101.69722747802734, -11.509542465209961, 175.1713104248047, 94.08466339111328, -0.08000000566244125, 0.0, 1.055999994277954, 0.0, 0.0, 0.0, 0.0, 0.0, 1.6218604320961738E9, 2021-05-24 14:47:12.096
5.0, -158.70826721191406, -55.43840789794922, 114.74574279785156, 42.758277893066406, -0.08000000566244125, 0.0, 1.055999994277954, 0.0, 0.0, 0.0, 0.0, 0.0, 1.6218604320961738E9, 2021-05-24 14:47:12.096
6.0, -237.4107208251953, -103.02115631103516, 34.427650451660156, -21.732559204101562, -0.08000000566244125, 0.0, 1.055999994277954, 0.0, 0.0, 0.0, 0.0, 0.0, 1.6218604320968833E9, 2021-05-24 14:47:12.096
6.0, -175.66871643066406, -75.44313049316406, 101.13624572753906, 18.06745719909668, -0.08000000566244125, 0.0, 1.055999994277954, 0.0, 0.0, 0.0, 0.0, 0.0, 1.6218604320968833E9, 2021-05-24 14:47:12.096
7.0, -111.76878356933594, -16.233036041259766, 172.5907745361328, 83.21277618408203, -0.08000000566244125, 0.0, 1.055999994277954, 0.0, 0.0, 0.0, 0.0, 0.0, 1.6218604320976524E9, 2021-05-24 14:47:12.097
7.0, -166.9061279296875, -47.47241973876953, 115.19452667236328, 43.76430892944336, -0.08000000566244125, 0.0, 1.055999994277954, 0.0, 0.0, 0.0, 0.0, 0.0, 1.6218604320976524E9, 2021-05-24 14:47:12.097
8.0, -245.5562286376953, -104.70410919189453, 42.479652404785156, -18.88649559020996, -0.08000000566244125, 0.0, 1.055999994277954, 0.0, 0.0, 0.0, 0.0, 0.0, 1.6218604321081047E9, 2021-05-24 14:47:12.108
8.0, -180.9232635498047, -73.89107513427734, 98.17798614501953, 20.45351219177246, -0.08000000566244125, 0.0, 1.055999994277954, 0.0, 0.0, 0.0, 0.0, 0.0, 1.6218604321081047E9, 2021-05-24 14:47:12.108
9.0, -109.10597229003906, -15.387818336486816, 168.52549743652344, 81.82901000976562, -0.08000000566244125, 0.0, 1.055999994277954, 0.0, 0.0, 0.0, 0.0, 0.0, 1.6218604321088567E9, 2021-05-24 14:47:12.108
9.0, -169.9616241455078, -53.2056884765625, 119.5103759765625, 45.795074462890625, -0.08000000566244125, 0.0, 1.055999994277954, 0.0, 0.0, 0.0, 0.0, 0.0, 1.6218604321088567E9, 2021-05-24 14:47:12.108
10.0, -246.7006378173828, -100.45932006835938, 43.99805450439453, -16.810850143432617, -0.08000000566244125, 0.0, 1.040000081062317, 0.0, 0.0, 0.0, 0.0, 0.0, 1.6218604321223164E9, 2021-05-24 14:47:12.122
10.0, -179.25527954101562, -67.00592041015625, 101.3456802368164, 18.407787322998047, -0.08000000566244125, 0.0, 1.040000081062317, 0.0, 0.0, 0.0, 0.0, 0.0, 1.6218604321223164E9, 2021-05-24 14:47:12.122
11.0, -112.64391326904297, -8.82055377960205, 171.69692993164062, 78.9754638671875, -0.08000000566244125, 0.0, 1.040000081062317, 0.0, 0.0, 0.0, 0.0, 0.0, 1.6218604321377008E9, 2021-05-24 14:47:12.137
11.0, -157.9154052734375, -37.98429489135742, 114.2520751953125, 45.77263641357422, -0.08000000566244125, 0.0, 1.040000081062317, 0.0, 0.0, 0.0, 0.0, 0.0, 1.6218604321377008E9, 2021-05-24 14:47:12.137
12.0, -246.48745727539062, -99.1802749633789, 46.18215560913086, -25.094728469848633, -0.06400000303983688, 0.0, 1.040000081062317, 0.0, 0.0, 0.0, 0.0, 0.0, 1.6218604321531188E9, 2021-05-24 14:47:12.153
12.0, -182.8007049560547, -75.25988006591797, 92.52699279785156, 12.192073822021484, -0.06400000303983688, 0.0, 1.040000081062317, 0.0, 0.0, 0.0, 0.0, 0.0, 1.6218604321531188E9, 2021-05-24 14:47:12.153
13.0, -104.73028564453125, -4.3775529861450195, 168.7985076904297, 84.01685333251953, -0.06400000303983688, 0.0, 1.040000081062317, 0.0, 0.0, 0.0, 0.0, 0.0, 1.6218604321538355E9, 2021-05-24 14:47:12.153
13.0, -165.87391662597656, -48.84870147705078, 118.35100555419922, 42.35810852050781, -0.06400000303983688, 0.0, 1.040000081062317, 0.0, 0.0, 0.0, 0.0, 0.0, 1.6218604321538355E9, 2021-05-24 14:47:12.153
14.0, -244.7932891845703, -102.80423736572266, 36.45841598510742, -17.79818344116211, -0.06400000303983688, 0.0, 1.040000081062317, 0.0, 0.0, 0.0, 0.0, 0.0, 1.621860432167942E9, 2021-05-24 14:47:12.167
14.0, -175.504150390625, -69.19001770019531, 100.29103088378906, 20.535791397094727, -0.06400000303983688, 0.0, 1.040000081062317, 0.0, 0.0, 0.0, 0.0, 0.0, 1.621860432167942E9, 2021-05-24 14:47:12.167
15.0, -104.36751556396484, -10.8101806640625, 167.00709533691406, 80.59858703613281, -0.06400000303983688, 0.0, 1.040000081062317, 0.0, 0.0, 0.0, 0.0, 0.0, 1.6218604321686373E9, 2021-05-24 14:47:12.168
15.0, -158.60728454589844, -43.104217529296875, 117.28887176513672, 41.99159622192383, -0.06400000303983688, 0.0, 1.040000081062317, 0.0, 0.0, 0.0, 0.0, 0.0, 1.6218604321686373E9, 2021-05-24 14:47:12.168
16.0, -244.28465270996094, -102.86033630371094, 34.77920150756836, -22.185087203979492, -0.06400000303983688, 0.0, 1.040000081062317, 0.0, 0.0, 0.0, 0.0, 0.0, 1.6218604321822538E9, 2021-05-24 14:47:12.182
16.0, -181.1439208984375, -68.763671875, 99.48320770263672, 22.682493209838867, -0.06400000303983688, 0.0, 1.040000081062317, 0.0, 0.0, 0.0, 0.0, 0.0, 1.6218604321822538E9, 2021-05-24 14:47:12.182
17.0, -103.62701416015625, -11.44970417022705, 172.6655731201172, 86.64974212646484, -0.06400000303983688, 0.0, 1.040000081062317, 0.0, 0.0, 0.0, 0.0, 0.0, 1.6218604321978793E9, 2021-05-24 14:47:12.197
17.0, -153.02735900878906, -44.75725173950195, 125.96170043945312, 42.57876205444336, -0.06400000303983688, 0.0, 1.040000081062317, 0.0, 0.0, 0.0, 0.0, 0.0, 1.6218604321978793E9, 2021-05-24 14:47:12.197
18.0, -242.90463256835938, -106.86576843261719, 36.91842269897461, -24.660900115966797, -0.06400000303983688, 0.0, 1.040000081062317, 0.0, 0.0, 0.0, 0.0, 0.0, 1.6218604321986048E9, 2021-05-24 14:47:12.198
18.0, -170.24960327148438, -77.8179702758789, 109.83151245117188, 19.066009521484375, -0.06400000303983688, 0.0, 1.040000081062317, 0.0, 0.0, 0.0, 0.0, 0.0, 1.6218604321986048E9, 2021-05-24 14:47:12.198
19.0, -112.96554565429688, -21.02010726928711, 172.10458374023438, 72.86073303222656, -0.06400000303983688, 0.0, 1.040000081062317, 0.0, 0.0, 0.0, 0.0, 0.0, 1.6218604322123945E9, 2021-05-24 14:47:12.212
19.0, -164.49014282226562, -48.25779724121094, 120.82307434082031, 37.268104553222656, -0.06400000303983688, 0.0, 1.040000081062317, 0.0, 0.0, 0.0, 0.0, 0.0, 1.6218604322123945E9, 2021-05-24 14:47:12.212
20.0, -233.7156982421875, -102.95757293701172, 48.254058837890625, -28.449419021606445, -0.06400000303983688, 0.0, 1.040000081062317, 0.0, 0.0, 0.0, 0.0, 0.0, 1.62186043222787E9, 2021-05-24 14:47:12.227
20.0, -167.9645233154297, -71.40403747558594, 107.83814239501953, 17.872982025146484, -0.06400000303983688, 0.0, 1.040000081062317, 0.0, 0.0, 0.0, 0.0, 0.0, 1.62186043222787E9, 2021-05-24 14:47:12.227
21.0, -106.22624969482422, -14.991389274597168, 173.1854248046875, 78.9530258178711, -0.06400000303983688, 0.0, 1.040000081062317, 0.0, 0.0, 0.0, 0.0, 0.0, 1.621860432228582E9, 2021-05-24 14:47:12.228
21.0, -159.7778778076172, -49.8135986328125, 125.72982788085938, 46.95818328857422, -0.06400000303983688, 0.0, 1.040000081062317, 0.0, 0.0, 0.0, 0.0, 0.0, 1.621860432228582E9, 2021-05-24 14:47:12.228
22.0, -242.9083709716797, -109.7754135131836, 47.52103805541992, -15.36724853515625, -0.06400000303983688, 0.0, 1.040000081062317, 0.0, 0.0, 0.0, 0.0, 0.0, 1.6218604322422955E9, 2021-05-24 14:47:12.242
22.0, -183.30184936523438, -77.12982940673828, 104.95841979980469, 18.29932975769043, -0.06400000303983688, 0.0, 1.040000081062317, 0.0, 0.0, 0.0, 0.0, 0.0, 1.6218604322422955E9, 2021-05-24 14:47:12.242
23.0, -112.81594848632812, -11.128072738647461, 177.29930114746094, 82.88365936279297, -0.06400000303983688, 0.0, 1.040000081062317, 0.0, 0.0, 0.0, 0.0, 0.0, 1.62186043225801E9, 2021-05-24 14:47:12.258
23.0, -166.008544921875, -46.31304931640625, 127.73815155029297, 40.38718032836914, -0.06400000303983688, 0.0, 1.040000081062317, 0.0, 0.0, 0.0, 0.0, 0.0, 1.62186043225801E9, 2021-05-24 14:47:12.258
24.0, -243.6301727294922, -105.34363555908203, 47.27046585083008, -22.925586700439453, -0.06400000303983688, 0.0, 1.040000081062317, 0.0, 0.0, 0.0, 0.0, 0.0, 1.6218604322586703E9, 2021-05-24 14:47:12.258
24.0, -178.03233337402344, -74.65027618408203, 110.560791015625, 22.59647560119629, -0.06400000303983688, 0.0, 1.040000081062317, 0.0, 0.0, 0.0, 0.0, 0.0, 1.6218604322586703E9, 2021-05-24 14:47:12.258
25.0, -112.47936248779297, -17.168010711669922, 178.2529754638672, 79.41677856445312, -0.06400000303983688, 0.0, 1.040000081062317, 0.0, 0.0, 0.0, 0.0, 0.0, 1.6218604322723787E9, 2021-05-24 14:47:12.272
25.0, -160.49220275878906, -53.2056884765625, 121.86650848388672, 48.671058654785156, -0.06400000303983688, 0.0, 1.040000081062317, 0.0, 0.0, 0.0, 0.0, 0.0, 1.6218604322723787E9, 2021-05-24 14:47:12.272
26.0, -239.04879760742188, -107.59130859375, 42.48713302612305, -19.828948974609375, -0.06400000303983688, 0.0, 1.040000081062317, 0.0, 0.0, 0.0, 0.0, 0.0, 1.6218604322880268E9, 2021-05-24 14:47:12.288
26.0, -173.87356567382812, -80.88468933105469, 104.60313415527344, 20.479692459106445, -0.06400000303983688, 0.0, 1.040000081062317, 0.0, 0.0, 0.0, 0.0, 0.0, 1.6218604322880268E9, 2021-05-24 14:47:12.288
27.0, -111.3461685180664, -23.533321380615234, 177.29556274414062, 82.3675537109375, -0.06400000303983688, 0.0, 1.040000081062317, 0.0, 0.0, 0.0, 0.0, 0.0, 1.6218604322887836E9, 2021-05-24 14:47:12.288
27.0, -157.38433837890625, -47.5958366394043, 129.3313446044922, 47.92681884765625, -0.06400000303983688, 0.0, 1.040000081062317, 0.0, 0.0, 0.0, 0.0, 0.0, 1.6218604322887836E9, 2021-05-24 14:47:12.288
28.0, -248.54066467285156, -107.6100082397461, 42.78632354736328, -21.156614303588867, -0.06400000303983688, 0.0, 1.040000081062317, 0.0, 0.0, 0.0, 0.0, 0.0, 1.6218604323022594E9, 2021-05-24 14:47:12.302
28.0, -174.47193908691406, -79.21295166015625, 109.12093353271484, 19.1669864654541, -0.06400000303983688, 0.0, 1.040000081062317, 0.0, 0.0, 0.0, 0.0, 0.0, 1.6218604323022594E9, 2021-05-24 14:47:12.302
29.0, -107.72594451904297, -13.282254219055176, 178.00241088867188, 81.16704559326172, -0.06400000303983688, 0.0, 1.040000081062317, 0.0, 0.0, 0.0, 0.0, 0.0, 1.6218604323343425E9, 2021-05-24 14:47:12.334
29.0, -155.60789489746094, -49.65652084350586, 121.61967468261719, 42.694698333740234, -0.06400000303983688, 0.0, 1.040000081062317, 0.0, 0.0, 0.0, 0.0, 0.0, 1.6218604323343425E9, 2021-05-24 14:47:12.334
30.0, -242.4521026611328, -112.67009735107422, 34.11349868774414, -21.0331974029541, -0.06400000303983688, 0.0, 1.055999994277954, 0.0, 0.0, 0.0, 0.0, 0.0, 1.6218604323350956E9, 2021-05-24 14:47:12.335
30.0, -179.5918731689453, -75.78720092773438, 103.72799682617188, 24.754398345947266, -0.06400000303983688, 0.0, 1.055999994277954, 0.0, 0.0, 0.0, 0.0, 0.0, 1.6218604323350956E9, 2021-05-24 14:47:12.335
31.0, -110.97592163085938, -15.193343162536621, 174.3709716796875, 83.63912200927734, -0.06400000303983688, 0.0, 1.055999994277954, 0.0, 0.0, 0.0, 0.0, 0.0, 1.6218604323357992E9, 2021-05-24 14:47:12.335
31.0, -166.15066528320312, -51.00662612915039, 122.06098175048828, 39.930912017822266, -0.06400000303983688, 0.0, 1.055999994277954, 0.0, 0.0, 0.0, 0.0, 0.0, 1.6218604323357992E9, 2021-05-24 14:47:12.335
32.0, -246.75299072265625, -109.46500396728516, 38.26852798461914, -19.241785049438477, -0.06400000303983688, 0.0, 1.055999994277954, 0.0, 0.0, 0.0, 0.0, 0.0, 1.6218604323365908E9, 2021-05-24 14:47:12.336
32.0, -171.1808319091797, -74.8858871459961, 103.2305908203125, 21.30994987487793, -0.06400000303983688, 0.0, 1.055999994277954, 0.0, 0.0, 0.0, 0.0, 0.0, 1.6218604323365908E9, 2021-05-24 14:47:12.336
33.0, -107.40057373046875, -15.488795280456543, 175.35829162597656, 82.83130645751953, -0.06400000303983688, 0.0, 1.055999994277954, 0.0, 0.0, 0.0, 0.0, 0.0, 1.6218604323473365E9, 2021-05-24 14:47:12.347
33.0, -160.35755920410156, -50.827110290527344, 126.42919158935547, 47.11526107788086, -0.06400000303983688, 0.0, 1.055999994277954, 0.0, 0.0, 0.0, 0.0, 0.0, 1.6218604323473365E9, 2021-05-24 14:47:12.347
34.0, -237.15640258789062, -108.81800079345703, 42.053306579589844, -15.786117553710938, -0.06400000303983688, 0.0, 1.055999994277954, 0.0, 0.0, 0.0, 0.0, 0.0, 1.6218604323621817E9, 2021-05-24 14:47:12.362
34.0, -174.4158477783203, -76.7520980834961, 109.93997192382812, 23.33697509765625, -0.06400000303983688, 0.0, 1.055999994277954, 0.0, 0.0, 0.0, 0.0, 0.0, 1.6218604323621817E9, 2021-05-24 14:47:12.362
35.0, -103.28668975830078, -21.6147518157959, 182.0826416015625, 85.09394073486328, -0.06400000303983688, 0.0, 1.055999994277954, 0.0, 0.0, 0.0, 0.0, 0.0, 1.6218604323779857E9, 2021-05-24 14:47:12.377
35.0, -162.96426391601562, -57.76088333129883, 120.42290496826172, 45.09945297241211, -0.06400000303983688, 0.0, 1.055999994277954, 0.0, 0.0, 0.0, 0.0, 0.0, 1.6218604323779857E9, 2021-05-24 14:47:12.377
36.0, -240.6270294189453, -107.73342895507812, 43.683902740478516, -16.51913833618164, -0.06400000303983688, 0.0, 1.055999994277954, 0.0, 0.0, 0.0, 0.0, 0.0, 1.6218604323787248E9, 2021-05-24 14:47:12.378
36.0, -175.1264190673828, -79.57946014404297, 101.77202606201172, 22.69371223449707, -0.06400000303983688, 0.0, 1.055999994277954, 0.0, 0.0, 0.0, 0.0, 0.0, 1.6218604323787248E9, 2021-05-24 14:47:12.378
37.0, -108.27571105957031, -18.45453643798828, 175.31341552734375, 79.18489837646484, -0.06400000303983688, 0.0, 1.055999994277954, 0.0, 0.0, 0.0, 0.0, 0.0, 1.6218604323921604E9, 2021-05-24 14:47:12.392
37.0, -169.38194274902344, -58.06755828857422, 112.07545471191406, 41.80834197998047, -0.06400000303983688, 0.0, 1.055999994277954, 0.0, 0.0, 0.0, 0.0, 0.0, 1.6218604323921604E9, 2021-05-24 14:47:12.392
38.0, -246.03118896484375, -115.82283020019531, 39.60367202758789, -21.089296340942383, -0.06400000303983688, 0.0, 1.055999994277954, 0.0, 0.0, 0.0, 0.0, 0.0, 1.6218604324079096E9, 2021-05-24 14:47:12.407
38.0, -174.2924346923828, -78.50984954833984, 106.3870620727539, 16.92304801940918, -0.06400000303983688, 0.0, 1.055999994277954, 0.0, 0.0, 0.0, 0.0, 0.0, 1.6218604324079096E9, 2021-05-24 14:47:12.407
39.0, -115.22071075439453, -19.370811462402344, 163.74217224121094, 83.66529846191406, -0.06400000303983688, 0.0, 1.055999994277954, 0.0, 0.0, 0.0, 0.0, 0.0, 1.621860432408632E9, 2021-05-24 14:47:12.408
39.0, -162.0741729736328, -48.64674758911133, 119.90306091308594, 46.29248046875, -0.06400000303983688, 0.0, 1.055999994277954, 0.0, 0.0, 0.0, 0.0, 0.0, 1.621860432408632E9, 2021-05-24 14:47:12.408
40.0, -251.61485290527344, -108.39913177490234, 40.721900939941406, -26.758983612060547, -0.06400000303983688, 0.0, 1.040000081062317, 0.0, 0.0, 0.0, 0.0, 0.0, 1.6218604324223368E9, 2021-05-24 14:47:12.422
40.0, -186.1591339111328, -76.70721435546875, 109.34158325195312, 20.57318878173828, -0.06400000303983688, 0.0, 1.040000081062317, 0.0, 0.0, 0.0, 0.0, 0.0, 1.6218604324223368E9, 2021-05-24 14:47:12.422
41.0, -120.82682037353516, -16.595806121826172, 175.4779815673828, 81.70559692382812, -0.06400000303983688, 0.0, 1.040000081062317, 0.0, 0.0, 0.0, 0.0, 0.0, 1.6218604324379983E9, 2021-05-24 14:47:12.437
41.0, -172.22425842285156, -56.02183151245117, 120.58372497558594, 38.47235107421875, -0.06400000303983688, 0.0, 1.040000081062317, 0.0, 0.0, 0.0, 0.0, 0.0, 1.6218604324379983E9, 2021-05-24 14:47:12.437
42.0, -250.44427490234375, -109.19573211669922, 42.7003059387207, -20.266517639160156, -0.06400000303983688, 0.0, 1.040000081062317, 0.0, 0.0, 0.0, 0.0, 0.0, 1.6218604324386444E9, 2021-05-24 14:47:12.438
42.0, -180.2164306640625, -83.44651794433594, 107.11634826660156, 21.837276458740234, -0.06400000303983688, 0.0, 1.040000081062317, 0.0, 0.0, 0.0, 0.0, 0.0, 1.6218604324386444E9, 2021-05-24 14:47:12.438
43.0, -111.73886108398438, -17.212888717651367, 183.4327392578125, 85.1537857055664, -0.06400000303983688, 0.0, 1.040000081062317, 0.0, 0.0, 0.0, 0.0, 0.0, 1.621860432468612E9, 2021-05-24 14:47:12.468
43.0, -163.96656799316406, -51.780784606933594, 124.6115951538086, 49.77058792114258, -0.06400000303983688, 0.0, 1.040000081062317, 0.0, 0.0, 0.0, 0.0, 0.0, 1.621860432468612E9, 2021-05-24 14:47:12.468
44.0, -243.5890350341797, -112.84213256835938, 42.87982177734375, -18.733158111572266, -0.06400000303983688, 0.0, 1.040000081062317, 0.0, 0.0, 0.0, 0.0, 0.0, 1.6218604324693372E9, 2021-05-24 14:47:12.469
44.0, -179.35250854492188, -76.44542694091797, 111.12925720214844, 21.4445858001709, -0.06400000303983688, 0.0, 1.040000081062317, 0.0, 0.0, 0.0, 0.0, 0.0, 1.6218604324693372E9, 2021-05-24 14:47:12.469
45.0, -108.56368255615234, -19.393251419067383, 178.46615600585938, 85.07150268554688, -0.06400000303983688, 0.0, 1.040000081062317, 0.0, 0.0, 0.0, 0.0, 0.0, 1.621860432470117E9, 2021-05-24 14:47:12.470
45.0, -161.01951599121094, -46.630943298339844, 128.59458923339844, 45.53328323364258, -0.06400000303983688, 0.0, 1.040000081062317, 0.0, 0.0, 0.0, 0.0, 0.0, 1.621860432470117E9, 2021-05-24 14:47:12.470
46.0, -248.86228942871094, -107.75960540771484, 41.51102066040039, -18.20957374572754, -0.06400000303983688, 0.0, 1.040000081062317, 0.0, 0.0, 0.0, 0.0, 0.0, 1.6218604324822965E9, 2021-05-24 14:47:12.482
46.0, -173.2714385986328, -72.31657409667969, 107.34822082519531, 16.17880630493164, -0.06400000303983688, 0.0, 1.040000081062317, 0.0, 0.0, 0.0, 0.0, 0.0, 1.6218604324822965E9, 2021-05-24 14:47:12.482
47.0, -113.0889663696289, -18.058107376098633, 173.8548583984375, 85.81574249267578, -0.06400000303983688, 0.0, 1.040000081062317, 0.0, 0.0, 0.0, 0.0, 0.0, 1.6218604324978623E9, 2021-05-24 14:47:12.497
47.0, -164.03387451171875, -50.726131439208984, 123.01465606689453, 50.05855941772461, -0.06400000303983688, 0.0, 1.040000081062317, 0.0, 0.0, 0.0, 0.0, 0.0, 1.6218604324978623E9, 2021-05-24 14:47:12.497
48.0, -245.85166931152344, -111.49950408935547, 41.45117950439453, -14.391135215759277, -0.06400000303983688, 0.0, 1.040000081062317, 0.0, 0.0, 0.0, 0.0, 0.0, 1.6218604324986331E9, 2021-05-24 14:47:12.498
48.0, -177.710693359375, -80.63037109375, 102.72196197509766, 23.254697799682617, -0.06400000303983688, 0.0, 1.040000081062317, 0.0, 0.0, 0.0, 0.0, 0.0, 1.6218604324986331E9, 2021-05-24 14:47:12.498
49.0, -121.67951202392578, -15.735629081726074, 172.47109985351562, 82.13941955566406, -0.06400000303983688, 0.0, 1.040000081062317, 0.0, 0.0, 0.0, 0.0, 0.0, 1.6218604325123074E9, 2021-05-24 14:47:12.512
49.0, -167.02206420898438, -51.19361877441406, 123.94589233398438, 44.093421936035156, -0.06400000303983688, 0.0, 1.040000081062317, 0.0, 0.0, 0.0, 0.0, 0.0, 1.6218604325123074E9, 2021-05-24 14:47:12.512
50.0, -243.21878051757812, -105.89714050292969, 40.56108474731445, -21.534343719482422, -0.06400000303983688, 0.0, 1.040000081062317, 0.0, 0.0, 0.0, 0.0, 0.0, 1.6218604325276139E9, 2021-05-24 14:47:12.527
50.0, -171.87644958496094, -68.0605697631836, 105.97193145751953, 19.638214111328125, -0.06400000303983688, 0.0, 1.040000081062317, 0.0, 0.0, 0.0, 0.0, 0.0, 1.6218604325276139E9, 2021-05-24 14:47:12.527
51.0, -114.15857696533203, -16.53970718383789, 172.8712615966797, 79.44669342041016, -0.06400000303983688, 0.0, 1.040000081062317, 0.0, 0.0, 0.0, 0.0, 0.0, 1.6218604325429187E9, 2021-05-24 14:47:12.542
51.0, -159.4375457763672, -49.19651412963867, 120.94275665283203, 39.17171096801758, -0.06400000303983688, 0.0, 1.040000081062317, 0.0, 0.0, 0.0, 0.0, 0.0, 1.6218604325429187E9, 2021-05-24 14:47:12.542
52.0, -239.96881103515625, -106.2412109375, 41.54841995239258, -22.132728576660156, -0.08000000566244125, 0.0, 1.040000081062317, 0.0, 0.0, 0.0, 0.0, 0.0, 1.6218604325435982E9, 2021-05-24 14:47:12.543
52.0, -177.0711669921875, -76.12005615234375, 107.4491958618164, 20.472211837768555, -0.08000000566244125, 0.0, 1.040000081062317, 0.0, 0.0, 0.0, 0.0, 0.0, 1.6218604325435982E9, 2021-05-24 14:47:12.543
53.0, -110.66925048828125, -16.550928115844727, 175.79212951660156, 82.48723602294922, -0.08000000566244125, 0.0, 1.040000081062317, 0.0, 0.0, 0.0, 0.0, 0.0, 1.6218604325578823E9, 2021-05-24 14:47:12.557
53.0, -169.5614471435547, -54.32765579223633, 122.43497467041016, 43.07990646362305, -0.08000000566244125, 0.0, 1.040000081062317, 0.0, 0.0, 0.0, 0.0, 0.0, 1.6218604325578823E9, 2021-05-24 14:47:12.557
54.0, -246.93624877929688, -101.0240478515625, 44.68993377685547, -18.763078689575195, -0.08000000566244125, 0.0, 1.040000081062317, 0.0, 0.0, 0.0, 0.0, 0.0, 1.6218604325585868E9, 2021-05-24 14:47:12.558
54.0, -174.0343780517578, -72.49234771728516, 110.47103118896484, 19.843908309936523, -0.08000000566244125, 0.0, 1.040000081062317, 0.0, 0.0, 0.0, 0.0, 0.0, 1.6218604325585868E9, 2021-05-24 14:47:12.558
55.0, -107.69976806640625, -16.524747848510742, 174.7898406982422, 76.72779083251953, -0.08000000566244125, 0.0, 1.040000081062317, 0.0, 0.0, 0.0, 0.0, 0.0, 1.6218604325722687E9, 2021-05-24 14:47:12.572
55.0, -167.874755859375, -55.78247833251953, 123.8299560546875, 46.53931427001953, -0.08000000566244125, 0.0, 1.040000081062317, 0.0, 0.0, 0.0, 0.0, 0.0, 1.6218604325722687E9, 2021-05-24 14:47:12.572
56.0, -243.06544494628906, -110.055908203125, 41.36516189575195, -22.66753387451172, -0.08000000566244125, 0.0, 1.040000081062317, 0.0, 0.0, 0.0, 0.0, 0.0, 1.6218604325879464E9, 2021-05-24 14:47:12.587
56.0, -176.62612915039062, -70.38304901123047, 110.65055084228516, 24.34674835205078, -0.08000000566244125, 0.0, 1.040000081062317, 0.0, 0.0, 0.0, 0.0, 0.0, 1.6218604325879464E9, 2021-05-24 14:47:12.587
57.0, -113.6723861694336, -17.04085350036621, 165.65325927734375, 85.68859100341797, -0.08000000566244125, 0.0, 1.040000081062317, 0.0, 0.0, 0.0, 0.0, 0.0, 1.621860432588616E9, 2021-05-24 14:47:12.588
57.0, -166.0048065185547, -47.93242645263672, 121.30178833007812, 49.433998107910156, -0.08000000566244125, 0.0, 1.040000081062317, 0.0, 0.0, 0.0, 0.0, 0.0, 1.621860432588616E9, 2021-05-24 14:47:12.588
58.0, -241.73403930664062, -105.72135925292969, 43.0181999206543, -14.357476234436035, -0.08000000566244125, 0.0, 1.040000081062317, 0.0, 0.0, 0.0, 0.0, 0.0, 1.6218604326022296E9, 2021-05-24 14:47:12.602
58.0, -175.31715393066406, -71.16468811035156, 105.73258209228516, 22.185087203979492, -0.08000000566244125, 0.0, 1.040000081062317, 0.0, 0.0, 0.0, 0.0, 0.0, 1.6218604326022296E9, 2021-05-24 14:47:12.602
59.0, -112.0642318725586, -15.46635627746582, 176.3867645263672, 80.98379516601562, -0.08000000566244125, 0.0, 1.040000081062317, 0.0, 0.0, 0.0, 0.0, 0.0, 1.6218604326179442E9, 2021-05-24 14:47:12.617
59.0, -164.30316162109375, -48.65796661376953, 131.98294067382812, 48.49528121948242, -0.08000000566244125, 0.0, 1.040000081062317, 0.0, 0.0, 0.0, 0.0, 0.0, 1.6218604326179442E9, 2021-05-24 14:47:12.617
60.0, -242.17909240722656, -108.00643920898438, 51.971519470214844, -15.685140609741211, -0.08000000566244125, 0.0, 1.055999994277954, 0.0, 0.0, 0.0, 0.0, 0.0, 1.62186043261868E9, 2021-05-24 14:47:12.618
60.0, -175.63131713867188, -76.08639526367188, 114.19597625732422, 23.303316116333008, -0.08000000566244125, 0.0, 1.055999994277954, 0.0, 0.0, 0.0, 0.0, 0.0, 1.62186043261868E9, 2021-05-24 14:47:12.618
61.0, -103.76913452148438, -16.85759925842285, 181.71986389160156, 82.12446594238281, -0.08000000566244125, 0.0, 1.055999994277954, 0.0, 0.0, 0.0, 0.0, 0.0, 1.621860432632194E9, 2021-05-24 14:47:12.632
61.0, -170.99757385253906, -46.544925689697266, 124.37224578857422, 38.99593734741211, -0.08000000566244125, 0.0, 1.055999994277954, 0.0, 0.0, 0.0, 0.0, 0.0, 1.621860432632194E9, 2021-05-24 14:47:12.632
62.0, -238.91415405273438, -100.14517211914062, 50.17262649536133, -16.51165771484375, -0.06400000303983688, 0.0, 1.055999994277954, 0.0, 0.0, 0.0, 0.0, 0.0, 1.621860432647938E9, 2021-05-24 14:47:12.647
62.0, -176.44287109375, -74.44831848144531, 109.15458679199219, 19.724231719970703, -0.06400000303983688, 0.0, 1.055999994277954, 0.0, 0.0, 0.0, 0.0, 0.0, 1.621860432647938E9, 2021-05-24 14:47:12.647
63.0, -112.4083023071289, -9.893905639648438, 176.01278686523438, 84.15522766113281, -0.06400000303983688, 0.0, 1.055999994277954, 0.0, 0.0, 0.0, 0.0, 0.0, 1.621860432648594E9, 2021-05-24 14:47:12.648
63.0, -165.3652801513672, -45.96897888183594, 121.8178939819336, 42.63111877441406, -0.06400000303983688, 0.0, 1.055999994277954, 0.0, 0.0, 0.0, 0.0, 0.0, 1.621860432648594E9, 2021-05-24 14:47:12.648
64.0, -239.41905212402344, -106.7647933959961, 42.82372283935547, -22.372081756591797, -0.06400000303983688, 0.0, 1.055999994277954, 0.0, 0.0, 0.0, 0.0, 0.0, 1.621860432662469E9, 2021-05-24 14:47:12.662
64.0, -168.98924255371094, -71.50875854492188, 111.48080444335938, 24.57488250732422, -0.06400000303983688, 0.0, 1.055999994277954, 0.0, 0.0, 0.0, 0.0, 0.0, 1.621860432662469E9, 2021-05-24 14:47:12.662
65.0, -103.90003204345703, -17.871112823486328, 175.8818817138672, 80.89403533935547, -0.06400000303983688, 0.0, 1.055999994277954, 0.0, 0.0, 0.0, 0.0, 0.0, 1.6218604326780086E9, 2021-05-24 14:47:12.678
65.0, -158.09866333007812, -48.44105529785156, 128.14205932617188, 43.89146423339844, -0.06400000303983688, 0.0, 1.055999994277954, 0.0, 0.0, 0.0, 0.0, 0.0, 1.6218604326780086E9, 2021-05-24 14:47:12.678
66.0, -245.09996032714844, -109.53605651855469, 46.51874542236328, -16.451820373535156, -0.06400000303983688, 0.0, 1.055999994277954, 0.0, 0.0, 0.0, 0.0, 0.0, 1.621860432678597E9, 2021-05-24 14:47:12.678
66.0, -172.55337524414062, -76.64363861083984, 117.44220733642578, 29.010404586791992, -0.06400000303983688, 0.0, 1.055999994277954, 0.0, 0.0, 0.0, 0.0, 0.0, 1.621860432678597E9, 2021-05-24 14:47:12.678
67.0, -117.34870910644531, -17.669157028198242, 172.55337524414062, 79.74214935302734, -0.06400000303983688, 0.0, 1.055999994277954, 0.0, 0.0, 0.0, 0.0, 0.0, 1.6218604326921864E9, 2021-05-24 14:47:12.692
67.0, -168.4170379638672, -48.3176383972168, 119.5103759765625, 40.26750183105469, -0.06400000303983688, 0.0, 1.055999994277954, 0.0, 0.0, 0.0, 0.0, 0.0, 1.6218604326921864E9, 2021-05-24 14:47:12.692
68.0, -245.1971893310547, -103.2904281616211, 46.0400390625, -22.981685638427734, -0.06400000303983688, 0.0, 1.055999994277954, 0.0, 0.0, 0.0, 0.0, 0.0, 1.621860432707975E9, 2021-05-24 14:47:12.707
68.0, -169.9990234375, -73.77139282226562, 115.50494384765625, 23.77454376220703, -0.06400000303983688, 0.0, 1.055999994277954, 0.0, 0.0, 0.0, 0.0, 0.0, 1.621860432707975E9, 2021-05-24 14:47:12.707
69.0, -116.31649780273438, -19.228694915771484, 178.92616271972656, 74.40157318115234, -0.06400000303983688, 0.0, 1.055999994277954, 0.0, 0.0, 0.0, 0.0, 0.0, 1.62186043270873E9, 2021-05-24 14:47:12.708
69.0, -164.8192596435547, -48.687889099121094, 129.10321044921875, 36.09751510620117, -0.06400000303983688, 0.0, 1.055999994277954, 0.0, 0.0, 0.0, 0.0, 0.0, 1.62186043270873E9, 2021-05-24 14:47:12.708
70.0, -245.1597900390625, -100.30598449707031, 48.99456024169922, -26.186779022216797, -0.06400000303983688, 0.0, 1.055999994277954, 0.0, 0.0, 0.0, 0.0, 0.0, 1.621860432722293E9, 2021-05-24 14:47:12.722
70.0, -168.56663513183594, -67.07697296142578, 115.98738861083984, 17.9814395904541, -0.06400000303983688, 0.0, 1.055999994277954, 0.0, 0.0, 0.0, 0.0, 0.0, 1.621860432722293E9, 2021-05-24 14:47:12.722
71.0, -112.3447265625, -14.2022705078125, 182.57630920410156, 85.51280975341797, -0.06400000303983688, 0.0, 1.055999994277954, 0.0, 0.0, 0.0, 0.0, 0.0, 1.62186043273799E9, 2021-05-24 14:47:12.737
71.0, -163.8169708251953, -49.091796875, 123.54572296142578, 30.5175838470459, -0.06400000303983688, 0.0, 1.055999994277954, 0.0, 0.0, 0.0, 0.0, 0.0, 1.62186043273799E9, 2021-05-24 14:47:12.737
72.0, -243.6713104248047, -108.07749938964844, 46.862815856933594, -27.93705177307129, -0.08000000566244125, 0.0, 1.055999994277954, 0.0, 0.0, 0.0, 0.0, 0.0, 1.6218604327387197E9, 2021-05-24 14:47:12.738
72.0, -165.8065948486328, -75.12898254394531, 109.90257263183594, 18.175912857055664, -0.08000000566244125, 0.0, 1.055999994277954, 0.0, 0.0, 0.0, 0.0, 0.0, 1.6218604327387197E9, 2021-05-24 14:47:12.738
73.0, -111.1778793334961, -22.87135887145996, 173.04330444335938, 79.61872863769531, -0.08000000566244125, 0.0, 1.055999994277954, 0.0, 0.0, 0.0, 0.0, 0.0, 1.621860432769357E9, 2021-05-24 14:47:12.769
73.0, -159.97608947753906, -55.80491638183594, 119.30841827392578, 41.46052932739258, -0.08000000566244125, 0.0, 1.055999994277954, 0.0, 0.0, 0.0, 0.0, 0.0, 1.621860432769357E9, 2021-05-24 14:47:12.769
74.0, -240.89256286621094, -111.90715789794922, 42.49461364746094, -26.272796630859375, -0.08000000566244125, 0.0, 1.055999994277954, 0.0, 0.0, 0.0, 0.0, 0.0, 1.6218604327700918E9, 2021-05-24 14:47:12.770
74.0, -172.0709228515625, -76.35566711425781, 112.90196990966797, 20.939699172973633, -0.08000000566244125, 0.0, 1.055999994277954, 0.0, 0.0, 0.0, 0.0, 0.0, 1.6218604327700918E9, 2021-05-24 14:47:12.770
75.0, -109.29296875, -21.04254722595215, 174.4981231689453, 72.93927001953125, -0.08000000566244125, 0.0, 1.055999994277954, 0.0, 0.0, 0.0, 0.0, 0.0, 1.621860432770923E9, 2021-05-24 14:47:12.770
75.0, -160.21543884277344, -50.931827545166016, 125.12396240234375, 47.63884735107422, -0.08000000566244125, 0.0, 1.055999994277954, 0.0, 0.0, 0.0, 0.0, 0.0, 1.621860432770923E9, 2021-05-24 14:47:12.770
76.0, -242.08934020996094, -110.8375473022461, 39.240901947021484, -19.144548416137695, -0.08000000566244125, 0.0, 1.055999994277954, 0.0, 0.0, 0.0, 0.0, 0.0, 1.6218604327822592E9, 2021-05-24 14:47:12.782
76.0, -167.79248046875, -77.14478302001953, 115.40769958496094, 16.238645553588867, -0.08000000566244125, 0.0, 1.055999994277954, 0.0, 0.0, 0.0, 0.0, 0.0, 1.6218604327822592E9, 2021-05-24 14:47:12.782
77.0, -105.70640563964844, -17.018415451049805, 176.97393798828125, 80.66216278076172, -0.08000000566244125, 0.0, 1.055999994277954, 0.0, 0.0, 0.0, 0.0, 0.0, 1.6218604327979E9, 2021-05-24 14:47:12.797
77.0, -156.20626831054688, -61.21281433105469, 120.30696868896484, 38.008602142333984, -0.08000000566244125, 0.0, 1.055999994277954, 0.0, 0.0, 0.0, 0.0, 0.0, 1.6218604327979E9, 2021-05-24 14:47:12.797
78.0, -235.67166137695312, -110.32144165039062, 44.78717041015625, -18.033798217773438, -0.08000000566244125, 0.0, 1.055999994277954, 0.0, 0.0, 0.0, 0.0, 0.0, 1.6218604327986257E9, 2021-05-24 14:47:12.798
78.0, -161.5169219970703, -78.3191146850586, 114.98509216308594, 32.44737243652344, -0.08000000566244125, 0.0, 1.055999994277954, 0.0, 0.0, 0.0, 0.0, 0.0, 1.6218604327986257E9, 2021-05-24 14:47:12.798
79.0, -102.75562286376953, -20.346925735473633, 178.29037475585938, 89.60052490234375, -0.08000000566244125, 0.0, 1.055999994277954, 0.0, 0.0, 0.0, 0.0, 0.0, 1.6218604328286083E9, 2021-05-24 14:47:12.828
79.0, -156.03424072265625, -59.69441223144531, 119.6973648071289, 51.576961517333984, -0.08000000566244125, 0.0, 1.055999994277954, 0.0, 0.0, 0.0, 0.0, 0.0, 1.6218604328286083E9, 2021-05-24 14:47:12.828
80.0, -243.56285095214844, -110.65428924560547, 41.331504821777344, -24.021377563476562, -0.08000000566244125, 0.0, 1.055999994277954, 0.0, 0.0, 0.0, 0.0, 0.0, 1.6218604328292594E9, 2021-05-24 14:47:12.829
80.0, -167.77378845214844, -77.1148681640625, 115.27306365966797, 26.459793090820312, -0.08000000566244125, 0.0, 1.055999994277954, 0.0, 0.0, 0.0, 0.0, 0.0, 1.6218604328292594E9, 2021-05-24 14:47:12.829
81.0, -108.39164733886719, -18.125425338745117, 177.00759887695312, 83.76254272460938, -0.08000000566244125, 0.0, 1.055999994277954, 0.0, 0.0, 0.0, 0.0, 0.0, 1.621860432830026E9, 2021-05-24 14:47:12.830
81.0, -160.78016662597656, -52.027618408203125, 124.21891021728516, 45.836212158203125, -0.08000000566244125, 0.0, 1.055999994277954, 0.0, 0.0, 0.0, 0.0, 0.0, 1.621860432830026E9, 2021-05-24 14:47:12.830
82.0, -241.1842803955078, -110.82632446289062, 43.874637603759766, -20.075782775878906, -0.06400000303983688, 0.0, 1.055999994277954, 0.0, 0.0, 0.0, 0.0, 0.0, 1.621860432842312E9, 2021-05-24 14:47:12.842
82.0, -165.0810546875, -71.69200897216797, 118.14157104492188, 22.020530700683594, -0.06400000303983688, 0.0, 1.055999994277954, 0.0, 0.0, 0.0, 0.0, 0.0, 1.621860432842312E9, 2021-05-24 14:47:12.842
83.0, -100.63135528564453, -17.470943450927734, 184.38267517089844, 87.05364990234375, -0.06400000303983688, 0.0, 1.055999994277954, 0.0, 0.0, 0.0, 0.0, 0.0, 1.621860432857884E9, 2021-05-24 14:47:12.857
83.0, -156.25863647460938, -45.28083801269531, 137.08416748046875, 49.04130935668945, -0.06400000303983688, 0.0, 1.055999994277954, 0.0, 0.0, 0.0, 0.0, 0.0, 1.621860432857884E9, 2021-05-24 14:47:12.857
84.0, -244.37066650390625, -108.63848114013672, 51.7097282409668, -15.37472915649414, -0.06400000303983688, 0.0, 1.055999994277954, 0.0, 0.0, 0.0, 0.0, 0.0, 1.6218604328586838E9, 2021-05-24 14:47:12.858
84.0, -175.27601623535156, -71.052490234375, 115.93128967285156, 28.57283592224121, -0.06400000303983688, 0.0, 1.055999994277954, 0.0, 0.0, 0.0, 0.0, 0.0, 1.6218604328586838E9, 2021-05-24 14:47:12.858
85.0, -107.26593780517578, -14.209750175476074, 177.04873657226562, 87.50244140625, -0.06400000303983688, 0.0, 1.055999994277954, 0.0, 0.0, 0.0, 0.0, 0.0, 1.621860432872216E9, 2021-05-24 14:47:12.872
85.0, -163.42428588867188, -48.2877197265625, 123.35498809814453, 41.972896575927734, -0.06400000303983688, 0.0, 1.055999994277954, 0.0, 0.0, 0.0, 0.0, 0.0, 1.621860432872216E9, 2021-05-24 14:47:12.872
86.0, -233.64837646484375, -105.2837905883789, 46.197113037109375, -16.18628692626953, -0.06400000303983688, 0.0, 1.055999994277954, 0.0, 0.0, 0.0, 0.0, 0.0, 1.6218604328879676E9, 2021-05-24 14:47:12.887
86.0, -170.91529846191406, -73.76765441894531, 112.99546813964844, 30.562461853027344, -0.06400000303983688, 0.0, 1.055999994277954, 0.0, 0.0, 0.0, 0.0, 0.0, 1.6218604328879676E9, 2021-05-24 14:47:12.887
87.0, -103.43254089355469, -17.093212127685547, 177.60972595214844, 86.7806396484375, -0.06400000303983688, 0.0, 1.055999994277954, 0.0, 0.0, 0.0, 0.0, 0.0, 1.6218604328887188E9, 2021-05-24 14:47:12.888
87.0, -164.00022888183594, -49.19651412963867, 117.49082946777344, 47.25363540649414, -0.06400000303983688, 0.0, 1.055999994277954, 0.0, 0.0, 0.0, 0.0, 0.0, 1.6218604328887188E9, 2021-05-24 14:47:12.888
88.0, -244.9541015625, -104.24410247802734, 43.17901611328125, -19.5372371673584, -0.06400000303983688, 0.0, 1.055999994277954, 0.0, 0.0, 0.0, 0.0, 0.0, 1.6218604329022164E9, 2021-05-24 14:47:12.902
88.0, -177.93508911132812, -76.35566711425781, 117.69277954101562, 28.094127655029297, -0.06400000303983688, 0.0, 1.055999994277954, 0.0, 0.0, 0.0, 0.0, 0.0, 1.6218604329022164E9, 2021-05-24 14:47:12.902
89.0, -117.59554290771484, -14.280808448791504, 178.58209228515625, 87.11348724365234, -0.06400000303983688, 0.0, 1.055999994277954, 0.0, 0.0, 0.0, 0.0, 0.0, 1.6218604329179895E9, 2021-05-24 14:47:12.917
89.0, -170.5076446533203, -54.87742233276367, 126.59748077392578, 47.0853385925293, -0.06400000303983688, 0.0, 1.055999994277954, 0.0, 0.0, 0.0, 0.0, 0.0, 1.6218604329179895E9, 2021-05-24 14:47:12.917
90.0, -245.91151428222656, -108.39913177490234, 55.228973388671875, -18.033798217773438, -0.06400000303983688, 0.0, 1.055999994277954, 0.0, 0.0, 0.0, 0.0, 0.0, 1.6218604329187968E9, 2021-05-24 14:47:12.918
90.0, -172.7964630126953, -77.35047912597656, 118.17897033691406, 27.31622886657715, -0.06400000303983688, 0.0, 1.055999994277954, 0.0, 0.0, 0.0, 0.0, 0.0, 1.6218604329187968E9, 2021-05-24 14:47:12.918
91.0, -103.7167739868164, -18.59665298461914, 184.9137420654297, 88.73286437988281, -0.06400000303983688, 0.0, 1.055999994277954, 0.0, 0.0, 0.0, 0.0, 0.0, 1.621860432932207E9, 2021-05-24 14:47:12.932
91.0, -156.67001342773438, -48.7813835144043, 133.19467163085938, 48.16617202758789, -0.06400000303983688, 0.0, 1.055999994277954, 0.0, 0.0, 0.0, 0.0, 0.0, 1.621860432932207E9, 2021-05-24 14:47:12.932
92.0, -243.8882293701172, -105.478271484375, 51.971519470214844, -17.92534065246582, -0.06400000303983688, 0.0, 1.055999994277954, 0.0, 0.0, 0.0, 0.0, 0.0, 1.6218604329480717E9, 2021-05-24 14:47:12.948
92.0, -165.11097717285156, -77.20836639404297, 128.23556518554688, 34.822208404541016, -0.06400000303983688, 0.0, 1.055999994277954, 0.0, 0.0, 0.0, 0.0, 0.0, 1.6218604329480717E9, 2021-05-24 14:47:12.948
93.0, -103.69807434082031, -21.554912567138672, 184.59585571289062, 94.15198516845703, -0.06400000303983688, 0.0, 1.055999994277954, 0.0, 0.0, 0.0, 0.0, 0.0, 1.6218604329488144E9, 2021-05-24 14:47:12.948
93.0, -153.2180938720703, -53.90878677368164, 128.94613647460938, 46.558013916015625, -0.06400000303983688, 0.0, 1.055999994277954, 0.0, 0.0, 0.0, 0.0, 0.0, 1.6218604329488144E9, 2021-05-24 14:47:12.948
94.0, -235.7501983642578, -107.26219940185547, 60.11328125, -10.011712074279785, -0.06400000303983688, 0.0, 1.055999994277954, 0.0, 0.0, 0.0, 0.0, 0.0, 1.621860432962222E9, 2021-05-24 14:47:12.962
94.0, -169.43429565429688, -75.19255828857422, 117.85359954833984, 28.77853012084961, -0.06400000303983688, 0.0, 1.055999994277954, 0.0, 0.0, 0.0, 0.0, 0.0, 1.621860432962222E9, 2021-05-24 14:47:12.962
95.0, -104.86492156982422, -19.29601287841797, 181.13270568847656, 88.86002349853516, -0.06400000303983688, 0.0, 1.055999994277954, 0.0, 0.0, 0.0, 0.0, 0.0, 1.6218604329780517E9, 2021-05-24 14:47:12.978
